Wavelength	Transmittance	hex_color	Manufacturer	Name	Filter Number
350	0.0		Omega	790LP Longpass	W6051
351	0.0				
352	0.0				
353	0.0				
354	0.0				
355	0.0				
356	0.0				
357	0.0				
358	0.001				
359	0.0				
360	0.0				
361	0.0				
362	0.001				
363	0.001				
364	0.0				
365	0.0				
366	0.003				
367	0.0				
368	0.0				
369	0.0				
370	0.002				
371	0.001				
372	0.0				
373	0.0				
374	0.001				
375	0.0				
376	0.0				
377	0.0				
378	0.001				
379	0.0				
380	0.0				
381	0.0				
382	0.0				
383	0.0				
384	0.0				
385	0.0				
386	0.0				
387	0.0				
388	0.0				
389	0.0				
390	0.0				
391	0.004				
392	0.003				
393	0.002				
394	0.0				
395	0.001				
396	0.0				
397	0.0				
398	0.001				
399	0.0				
400	0.0				
401	0.0				
402	0.002				
403	0.002				
404	0.0				
405	0.002				
406	0.004				
407	0.0				
408	0.0				
409	0.0				
410	0.001				
411	0.0				
412	0.006				
413	0.0				
414	0.001				
415	0.0				
416	0.002				
417	0.002				
418	0.0				
419	0.0				
420	0.0				
421	0.0				
422	0.002				
423	0.0				
424	0.003				
425	0.0				
426	0.002				
427	0.0				
428	0.0				
429	0.002				
430	0.002				
431	0.0				
432	0.0				
433	0.0				
434	0.0				
435	0.0				
436	0.003				
437	0.0				
438	0.0				
439	0.0				
440	0.0				
441	0.0				
442	0.0				
443	0.001				
444	0.001				
445	0.0				
446	0.002				
447	0.001				
448	0.001				
449	0.0				
450	0.0				
451	0.0				
452	0.0				
453	0.001				
454	0.001				
455	0.001				
456	0.003				
457	0.0				
458	0.0				
459	0.0				
460	0.0				
461	0.0				
462	0.0				
463	0.0				
464	0.0				
465	0.0				
466	0.001				
467	0.001				
468	0.0				
469	0.0				
470	0.0				
471	0.002				
472	0.0				
473	0.0				
474	0.0				
475	0.0				
476	0.0				
477	0.002				
478	0.0				
479	0.0				
480	0.001				
481	0.0				
482	0.0				
483	0.0				
484	0.0				
485	0.004				
486	0.002				
487	0.0				
488	0.002				
489	0.001				
490	0.001				
491	0.003				
492	0.0				
493	0.0				
494	0.0				
495	0.0				
496	0.001				
497	0.0				
498	0.0				
499	0.0				
500	0.002				
501	0.0				
502	0.001				
503	0.0				
504	0.0				
505	0.0				
506	0.0				
507	0.002				
508	0.0				
509	0.003				
510	0.002				
511	0.001				
512	0.0				
513	0.0				
514	0.002				
515	0.0				
516	0.001				
517	0.0				
518	0.001				
519	0.0				
520	0.005				
521	0.0				
522	0.001				
523	0.0				
524	0.001				
525	0.0				
526	0.001				
527	0.001				
528	0.0				
529	0.0				
530	0.0				
531	0.001				
532	0.001				
533	0.002				
534	0.002				
535	0.0				
536	0.0				
537	0.0				
538	0.001				
539	0.0				
540	0.001				
541	0.001				
542	0.0				
543	0.0				
544	0.0				
545	0.001				
546	0.0				
547	0.002				
548	0.004				
549	0.001				
550	0.001				
551	0.003				
552	0.0				
553	0.0				
554	0.0				
555	0.0				
556	0.001				
557	0.001				
558	0.0				
559	0.001				
560	0.0				
561	0.0				
562	0.0				
563	0.003				
564	0.0				
565	0.0				
566	0.0				
567	0.002				
568	0.0				
569	0.0				
570	0.0				
571	0.003				
572	0.003				
573	0.0				
574	0.0				
575	0.0				
576	0.0				
577	0.001				
578	0.0				
579	0.002				
580	0.002				
581	0.001				
582	0.0				
583	0.0				
584	0.0				
585	0.0				
586	0.0				
587	0.0				
588	0.001				
589	0.001				
590	0.002				
591	0.0				
592	0.0				
593	0.0				
594	0.003				
595	0.0				
596	0.001				
597	0.0				
598	0.005				
599	0.0				
600	0.0				
601	0.001				
602	0.003				
603	0.002				
604	0.0				
605	0.002				
606	0.002				
607	0.0				
608	0.0				
609	0.001				
610	0.0				
611	0.0				
612	0.001				
613	0.006				
614	0.0				
615	0.0				
616	0.0				
617	0.001				
618	0.0				
619	0.0				
620	0.003				
621	0.003				
622	0.0				
623	0.0				
624	0.0				
625	0.001				
626	0.002				
627	0.002				
628	0.0				
629	0.002				
630	0.0				
631	0.0				
632	0.002				
633	0.0				
634	0.0				
635	0.0				
636	0.002				
637	0.0				
638	0.0				
639	0.002				
640	0.0				
641	0.002				
642	0.0				
643	0.0				
644	0.002				
645	0.0				
646	0.0				
647	0.0				
648	0.0				
649	0.0				
650	0.002				
651	0.004				
652	0.001				
653	0.002				
654	0.006				
655	0.001				
656	0.005				
657	0.003				
658	0.003				
659	0.0				
660	0.0				
661	0.0				
662	0.0				
663	0.003				
664	0.0				
665	0.005				
666	0.0				
667	0.0				
668	0.002				
669	0.001				
670	0.0				
671	0.001				
672	0.001				
673	0.001				
674	0.0				
675	0.0				
676	0.0				
677	0.0				
678	0.0				
679	0.001				
680	0.0				
681	0.0				
682	0.0				
683	0.0				
684	0.0				
685	0.0				
686	0.002				
687	0.003				
688	0.0				
689	0.002				
690	0.002				
691	0.003				
692	0.0				
693	0.002				
694	0.0				
695	0.0				
696	0.0				
697	0.0				
698	0.0				
699	0.0				
700	0.001				
701	0.0				
702	0.002				
703	0.0				
704	0.0				
705	0.0				
706	0.0				
707	0.001				
708	0.002				
709	0.0				
710	0.001				
711	0.0				
712	0.0				
713	0.0				
714	0.0				
715	0.0				
716	0.0				
717	0.0				
718	0.0				
719	0.0				
720	0.0				
721	0.002				
722	0.0				
723	0.0				
724	0.001				
725	0.005				
726	0.0				
727	0.001				
728	0.0				
729	0.0				
730	0.0				
731	0.002				
732	0.0				
733	0.0				
734	0.0				
735	0.0				
736	0.002				
737	0.003				
738	0.0				
739	0.0				
740	0.0				
741	0.0				
742	0.0				
743	0.001				
744	0.004				
745	0.002				
746	0.0				
747	0.0				
748	0.0				
749	0.0				
750	0.001				
751	0.0				
752	0.0				
753	0.001				
754	0.0				
755	0.0				
756	0.003				
757	0.0				
758	0.001				
759	0.001				
760	0.001				
761	0.0				
762	0.003				
763	0.0				
764	0.001				
765	0.0				
766	0.001				
767	0.0				
768	0.004				
769	0.0				
770	0.004				
771	0.006				
772	0.01				
773	0.018				
774	0.033				
775	0.073				
776	0.136				
777	0.279				
778	0.545				
779	1.072				
780	1.993				
781	3.569				
782	6.327				
783	11.071				
784	19.511				
785	34.045				
786	55.012				
787	76.004				
788	88.766				
789	92.145				
790	91.967				
791	91.478				
792	92.219				
793	93.351				
794	94.622				
795	95.373				
796	95.422				
797	95.102				
798	94.964				
799	94.771				
800	94.774				
801	95.189				
802	95.25				
803	95.403				
804	95.428				
805	95.508				
806	95.292				
807	95.46				
808	95.372				
809	95.39				
810	95.62				
811	95.483				
812	95.436				
813	95.465				
814	95.295				
815	95.466				
816	95.187				
817	95.163				
818	95.08				
819	95.16				
820	95.17				
821	95.335				
822	95.41				
823	95.274				
824	95.323				
825	95.21				
826	95.276				
827	95.156				
828	94.982				
829	95.212				
830	95.065				
831	95.108				
832	95.332				
833	95.349				
834	95.408				
835	95.384				
836	95.539				
837	95.654				
838	95.738				
839	95.442				
840	95.485				
841	95.306				
842	95.06				
843	95.267				
844	95.354				
845	95.178				
846	95.316				
847	95.366				
848	95.569				
849	95.445				
850	95.877				
851	95.72				
852	95.645				
853	95.631				
854	95.329				
855	95.756				
856	95.407				
857	95.631				
858	94.966				
859	95.573				
860	95.027				
861	95.476				
862	95.867				
863	96.014				
864	95.009				
865	95.374				
866	95.785				
867	96.107				
868	94.254				
869	95.073				
870	96.016				
871	95.62				
872	96.101				
873	95.178				
874	95.132				
875	94.727				
876	95.74				
877	95.968				
878	96.19				
879	95.218				
880	95.928				
881	95.183				
882	94.691				
883	95.246				
884	95.457				
885	95.412				
886	95.44				
887	95.482				
888	95.465				
889	95.491				
890	95.527				
891	95.544				
892	95.576				
893	95.604				
894	95.637				
895	95.642				
896	95.612				
897	95.658				
898	95.628				
899	95.612				
900	95.588				
901	95.567				
902	95.544				
903	95.58				
904	95.588				
905	95.614				
906	95.624				
907	95.62				
908	95.607				
909	95.635				
910	95.585				
911	95.622				
912	95.593				
913	95.583				
914	95.534				
915	95.567				
916	95.561				
917	95.512				
918	95.524				
919	95.521				
920	95.508				
921	95.492				
922	95.537				
923	95.483				
924	95.537				
925	95.567				
926	95.572				
927	95.59				
928	95.573				
929	95.61				
930	95.61				
931	95.566				
932	95.611				
933	95.575				
934	95.544				
935	95.52				
936	95.505				
937	95.529				
938	95.454				
939	95.486				
940	95.522				
941	95.513				
942	95.528				
943	95.528				
944	95.58				
945	95.514				
946	95.558				
947	95.601				
948	95.584				
949	95.559				
950	95.565				
951	95.542				
952	95.525				
953	95.54				
954	95.508				
955	95.475				
956	95.471				
957	95.477				
958	95.427				
959	95.511				
960	95.461				
961	95.488				
962	95.521				
963	95.522				
964	95.529				
965	95.551				
966	95.568				
967	95.63				
968	95.584				
969	95.608				
970	95.614				
971	95.599				
972	95.575				
973	95.544				
974	95.525				
975	95.56				
976	95.494				
977	95.511				
978	95.489				
979	95.475				
980	95.459				
981	95.511				
982	95.492				
983	95.507				
984	95.556				
985	95.548				
986	95.579				
987	95.593				
988	95.614				
989	95.586				
990	95.653				
991	95.638				
992	95.575				
993	95.593				
994	95.563				
995	95.525				
996	95.498				
997	95.474				
998	95.462				
999	95.461				
1000	95.386				
1001	95.408				
1002	95.446				
1003	95.482				
1004	95.47				
1005	95.495				
1006	95.511				
1007	95.517				
1008	95.543				
1009	95.603				
1010	95.587				
1011	95.648				
1012	95.639				
1013	95.608				
1014	95.615				
1015	95.57				
1016	95.593				
1017	95.51				
1018	95.503				
1019	95.482				
1020	95.458				
1021	95.41				
1022	95.386				
1023	95.393				
1024	95.381				
1025	95.371				
1026	95.375				
1027	95.405				
1028	95.443				
1029	95.457				
1030	95.501				
1031	95.514				
1032	95.571				
1033	95.579				
1034	95.562				
1035	95.625				
1036	95.623				
1037	95.643				
1038	95.612				
1039	95.59				
1040	95.608				
1041	95.563				
1042	95.537				
1043	95.529				
1044	95.503				
1045	95.443				
1046	95.417				
1047	95.401				
1048	95.418				
1049	95.382				
1050	95.387				
1051	95.418				
1052	95.436				
1053	95.448				
1054	95.492				
1055	95.533				
1056	95.527				
1057	95.555				
1058	95.583				
1059	95.597				
1060	95.598				
1061	95.604				
1062	95.599				
1063	95.614				
1064	95.593				
1065	95.589				
1066	95.529				
1067	95.485				
1068	95.476				
1069	95.433				
1070	95.399				
1071	95.405				
1072	95.34				
1073	95.337				
1074	95.391				
1075	95.326				
1076	95.365				
1077	95.359				
1078	95.398				
1079	95.443				
1080	95.404				
1081	95.473				
1082	95.496				
1083	95.541				
1084	95.545				
1085	95.575				
1086	95.633				
1087	95.617				
1088	95.617				
1089	95.635				
1090	95.579				
1091	95.561				
1092	95.552				
1093	95.536				
1094	95.485				
1095	95.491				
1096	95.457				
1097	95.388				
1098	95.418				
1099	95.37				
1100	95.356				
