Wavelength	Transmittance	hex_color	Manufacturer	Name	Filter Number
1080	0.014		Omega	1120BP20 Bandpass	W4478
1081	0.016				
1082	0.02				
1083	0.023				
1084	0.027				
1085	0.033				
1086	0.039				
1087	0.048				
1088	0.059				
1089	0.074				
1090	0.092				
1091	0.117				
1092	0.149				
1093	0.193				
1094	0.255				
1095	0.345				
1096	0.472				
1097	0.656				
1098	0.932				
1099	1.381				
1100	2.073				
