Wavelength	Transmittance	hex_color	Manufacturer	Name	Filter Number
300	5.433		Omega	U360 Absorption Glass	W6283
301	6.296				
302	7.327				
303	8.358				
304	9.485				
305	10.725				
306	12.01				
307	13.349				
308	14.753				
309	16.199				
310	17.68				
311	19.244				
312	20.802				
313	22.41				
314	23.986				
315	25.682				
316	27.25				
317	28.998				
318	30.535				
319	32.232				
320	33.974				
321	35.573				
322	37.176				
323	38.75				
324	40.25				
325	41.861				
326	43.222				
327	44.73				
328	46.188				
329	47.516				
330	48.775				
331	49.906				
332	51.395				
333	52.302				
334	53.527				
335	54.734				
336	55.457				
337	56.772				
338	57.566				
339	58.467				
340	59.496				
341	60.208				
342	61.034				
343	62.234				
344	62.197				
345	63.425				
346	64.294				
347	64.769				
348	65.412				
349	65.772				
350	66.53				
351	66.842				
352	66.881				
353	67.581				
354	68.12				
355	68.402				
356	68.878				
357	69.022				
358	69.14				
359	69.232				
360	69.452				
361	69.634				
362	69.553				
363	69.433				
364	69.291				
365	69.157				
366	68.938				
367	68.479				
368	68.122				
369	67.642				
370	67.15				
371	66.318				
372	65.574				
373	64.642				
374	63.543				
375	62.353				
376	60.936				
377	59.545				
378	57.913				
379	55.965				
380	53.979				
381	51.869				
382	49.463				
383	47.039				
384	44.34				
385	41.538				
386	38.704				
387	35.75				
388	32.747				
389	29.683				
390	26.635				
391	23.715				
392	20.807				
393	18.043				
394	15.438				
395	13.075				
396	10.883				
397	8.936				
398	7.272				
399	5.814				
400	4.557				
401	3.548				
402	2.694				
403	2.028				
404	1.487				
405	1.079				
406	0.778				
407	0.544				
408	0.376				
409	0.257				
410	0.17				
411	0.116				
412	0.071				
413	0.052				
414	0.033				
415	0.02				
416	0.014				
417	0.005				
418	0.003				
419	0.002				
420	0.003				
421	0.001				
422	0.0				
423	0.0				
424	0.001				
425	0.0				
426	0.0				
427	0.0				
428	0.002				
429	0.0				
430	0.0				
431	0.0				
432	0.0				
433	0.0				
434	0.002				
435	0.002				
436	0.0				
437	0.0				
438	0.002				
439	0.0				
440	0.0				
441	0.0				
442	0.0				
443	0.004				
444	0.001				
445	0.0				
446	0.002				
447	0.0				
448	0.002				
449	0.0				
450	0.0				
451	0.0				
452	0.003				
453	0.0				
454	0.0				
455	0.0				
456	0.0				
457	0.0				
458	0.0				
459	0.0				
460	0.0				
461	0.001				
462	0.0				
463	0.0				
464	0.006				
465	0.0				
466	0.0				
467	0.0				
468	0.0				
469	0.0				
470	0.0				
471	0.0				
472	0.0				
473	0.0				
474	0.002				
475	0.0				
476	0.0				
477	0.0				
478	0.003				
479	0.0				
480	0.0				
481	0.0				
482	0.0				
483	0.0				
484	0.0				
485	0.003				
486	0.0				
487	0.001				
488	0.0				
489	0.0				
490	0.001				
491	0.0				
492	0.0				
493	0.0				
494	0.001				
495	0.0				
496	0.002				
497	0.004				
498	0.0				
499	0.0				
500	0.002				
501	0.0				
502	0.0				
503	0.0				
504	0.0				
505	0.0				
506	0.001				
507	0.0				
508	0.0				
509	0.0				
510	0.0				
511	0.002				
512	0.0				
513	0.0				
514	0.0				
515	0.002				
516	0.001				
517	0.0				
518	0.0				
519	0.002				
520	0.0				
521	0.0				
522	0.0				
523	0.0				
524	0.0				
525	0.0				
526	0.0				
527	0.003				
528	0.0				
529	0.0				
530	0.0				
531	0.001				
532	0.0				
533	0.001				
534	0.0				
535	0.0				
536	0.0				
537	0.0				
538	0.0				
539	0.0				
540	0.0				
541	0.0				
542	0.0				
543	0.003				
544	0.0				
545	0.0				
546	0.001				
547	0.001				
548	0.003				
549	0.0				
550	0.0				
551	0.002				
552	0.0				
553	0.0				
554	0.002				
555	0.0				
556	0.0				
557	0.002				
558	0.0				
559	0.0				
560	0.0				
561	0.001				
562	0.001				
563	0.0				
564	0.001				
565	0.0				
566	0.0				
567	0.0				
568	0.0				
569	0.0				
570	0.0				
571	0.0				
572	0.0				
573	0.0				
574	0.0				
575	0.003				
576	0.001				
577	0.0				
578	0.0				
579	0.0				
580	0.002				
581	0.0				
582	0.0				
583	0.0				
584	0.0				
585	0.0				
586	0.0				
587	0.0				
588	0.0				
589	0.0				
590	0.0				
591	0.0				
592	0.004				
593	0.0				
594	0.004				
595	0.0				
596	0.0				
597	0.0				
598	0.0				
599	0.0				
600	0.0				
601	0.0				
602	0.004				
603	0.001				
604	0.0				
605	0.0				
606	0.003				
607	0.0				
608	0.0				
609	0.001				
610	0.0				
611	0.002				
612	0.0				
613	0.0				
614	0.0				
615	0.0				
616	0.0				
617	0.001				
618	0.0				
619	0.0				
620	0.0				
621	0.0				
622	0.0				
623	0.001				
624	0.0				
625	0.0				
626	0.0				
627	0.002				
628	0.0				
629	0.001				
630	0.0				
631	0.0				
632	0.0				
633	0.0				
634	0.0				
635	0.0				
636	0.004				
637	0.001				
638	0.003				
639	0.002				
640	0.002				
641	0.0				
642	0.0				
643	0.0				
644	0.0				
645	0.004				
646	0.0				
647	0.0				
648	0.002				
649	0.002				
650	0.003				
651	0.0				
652	0.002				
653	0.004				
654	0.0				
655	0.001				
656	0.0				
657	0.0				
658	0.0				
659	0.0				
660	0.0				
661	0.0				
662	0.0				
663	0.003				
664	0.0				
665	0.0				
666	0.0				
667	0.002				
668	0.0				
669	0.001				
670	0.0				
671	0.004				
672	0.001				
673	0.002				
674	0.0				
675	0.0				
676	0.002				
677	0.002				
678	0.003				
679	0.002				
680	0.003				
681	0.0				
682	0.0				
683	0.0				
684	0.002				
685	0.0				
686	0.001				
687	0.0				
688	0.006				
689	0.001				
690	0.005				
691	0.009				
692	0.021				
693	0.033				
694	0.061				
695	0.091				
696	0.132				
697	0.192				
698	0.27				
699	0.376				
700	0.513				
701	0.685				
702	0.901				
703	1.156				
704	1.464				
705	1.828				
706	2.244				
707	2.715				
708	3.239				
709	3.819				
710	4.459				
711	5.132				
712	5.828				
713	6.608				
714	7.387				
715	8.184				
716	9.01				
717	9.841				
718	10.674				
719	11.495				
720	12.312				
721	13.107				
722	13.892				
723	14.658				
724	15.409				
725	16.104				
726	16.864				
727	17.617				
728	18.282				
729	19.014				
730	19.751				
731	20.486				
732	21.268				
733	22.011				
734	22.763				
735	23.508				
736	24.293				
737	24.969				
738	25.69				
739	26.348				
740	27.022				
741	27.552				
742	28.034				
743	28.454				
744	28.87				
745	29.17				
746	29.383				
747	29.597				
748	29.666				
749	29.682				
750	29.636				
751	29.506				
752	29.352				
753	29.146				
754	28.851				
755	28.459				
756	28.033				
757	27.568				
758	27.043				
759	26.464				
760	25.897				
761	25.278				
762	24.644				
763	23.992				
764	23.362				
765	22.67				
766	22.031				
767	21.395				
768	20.825				
769	20.266				
770	19.736				
771	19.221				
772	18.792				
773	18.348				
774	17.979				
775	17.659				
776	17.375				
777	17.042				
778	16.812				
779	16.632				
780	16.378				
781	16.251				
782	16.066				
783	15.927				
784	15.731				
785	15.596				
786	15.46				
787	15.295				
788	15.092				
789	14.929				
790	14.784				
791	14.54				
792	14.359				
793	14.144				
794	13.969				
795	13.753				
796	13.492				
797	13.275				
798	13.014				
799	12.777				
800	12.55				
801	12.299				
802	12.047				
803	11.801				
804	11.608				
805	11.35				
806	11.056				
807	10.833				
808	10.601				
809	10.358				
810	10.159				
811	9.918				
812	9.672				
813	9.51				
814	9.29				
815	9.051				
816	8.856				
817	8.653				
818	8.476				
819	8.3				
820	8.138				
821	7.931				
822	7.76				
823	7.598				
824	7.44				
825	7.234				
826	7.126				
827	6.96				
828	6.789				
829	6.657				
830	6.518				
831	6.391				
832	6.257				
833	6.108				
834	5.979				
835	5.856				
836	5.749				
837	5.659				
838	5.51				
839	5.392				
840	5.279				
841	5.21				
842	5.124				
843	5.001				
844	4.936				
845	4.83				
846	4.738				
847	4.647				
848	4.565				
849	4.454				
850	4.413				
851	4.335				
852	4.254				
853	4.148				
854	4.117				
855	3.987				
856	3.944				
857	3.894				
858	3.791				
859	3.786				
860	3.694				
861	3.642				
862	3.577				
863	3.488				
864	3.531				
865	3.405				
866	3.377				
867	3.315				
868	3.247				
869	3.262				
870	3.226				
871	3.056				
872	3.051				
873	3.087				
874	2.925				
875	2.846				
876	2.807				
877	2.907				
878	2.76				
879	2.877				
880	2.752				
881	2.693				
882	2.675				
883	2.694				
884	1.802				
885	1.82				
886	1.733				
887	1.751				
888	1.69				
889	1.675				
890	1.637				
891	1.571				
892	1.542				
893	1.549				
894	1.507				
895	1.49				
896	1.461				
897	1.417				
898	1.388				
899	1.359				
900	1.343				
