Wavelength	Transmittance	hex_color	Manufacturer	Name	Filter Number
400	5.618		Omega	528DF17 Bandpass	W4758
401	5.663				
402	6.62				
403	5.908				
404	6.153				
405	5.563				
406	6.481				
407	10.0				
408	6.169				
409	6.0				
410	6.664				
411	6.811				
412	5.965				
413	6.382				
414	6.012				
415	6.193				
416	6.951				
417	5.944				
418	10.0				
419	6.626				
420	10.0				
421	6.097				
422	6.953				
423	5.874				
424	6.113				
425	10.0				
426	6.208				
427	6.455				
428	6.376				
429	6.844				
430	6.147				
431	6.282				
432	10.0				
433	6.371				
434	6.084				
435	10.0				
436	6.918				
437	6.493				
438	6.185				
439	6.219				
440	6.281				
441	7.312				
442	6.012				
443	6.788				
444	6.413				
445	6.537				
446	6.467				
447	6.408				
448	6.094				
449	6.47				
450	5.998				
451	6.153				
452	6.095				
453	6.069				
454	6.479				
455	6.922				
456	6.132				
457	6.262				
458	6.204				
459	6.55				
460	6.383				
461	6.211				
462	6.435				
463	6.367				
464	6.252				
465	6.498				
466	6.237				
467	6.081				
468	6.406				
469	5.915				
470	6.517				
471	6.466				
472	6.292				
473	6.168				
474	6.478				
475	6.255				
476	6.231				
477	6.298				
478	5.997				
479	6.341				
480	6.009				
481	6.136				
482	6.139				
483	5.835				
484	5.81				
485	5.727				
486	5.935				
487	5.826				
488	5.681				
489	5.647				
490	5.573				
491	5.394				
492	5.257				
493	5.202				
494	5.135				
495	4.931				
496	4.793				
497	4.625				
498	4.485				
499	4.324				
500	4.208				
501	4.067				
502	3.919				
503	3.727				
504	3.53				
505	3.33				
506	3.154				
507	2.973				
508	2.786				
509	2.595				
510	2.408				
511	2.226				
512	2.028				
513	1.786				
514	1.468				
515	1.048				
516	0.565				
517	0.193				
518	0.044				
519	0.026				
520	0.021				
521	0.012				
522	0.008				
523	0.008				
524	0.008				
525	0.009				
526	0.011				
527	0.013				
528	0.012				
529	0.013				
530	0.013				
531	0.018				
532	0.099				
533	0.395				
534	0.847				
535	1.216				
536	1.591				
537	2.65				
538	3.476				
539	4.236				
540	4.73				
541	5.046				
542	5.325				
543	5.533				
544	5.675				
545	5.801				
546	5.892				
547	6.048				
548	5.973				
549	6.26				
550	6.008				
551	6.194				
552	6.801				
553	6.89				
554	6.523				
555	6.33				
556	6.052				
557	6.264				
558	6.423				
559	6.671				
560	6.201				
561	6.477				
562	6.331				
563	6.471				
564	6.917				
565	10.0				
566	6.374				
567	10.0				
568	6.793				
569	6.467				
570	6.225				
571	6.246				
572	7.773				
573	6.129				
574	6.416				
575	7.131				
576	6.647				
577	6.513				
578	7.099				
579	6.362				
580	6.315				
581	6.278				
582	6.834				
583	7.049				
584	10.0				
585	6.89				
586	6.686				
587	10.0				
588	6.421				
589	10.0				
590	6.366				
591	10.0				
592	10.0				
593	6.513				
594	6.98				
595	6.28				
596	7.027				
597	6.06				
598	10.0				
599	6.686				
600	6.713				
601	10.0				
602	6.206				
603	6.524				
604	6.156				
605	6.732				
606	6.255				
607	10.0				
608	10.0				
609	6.711				
610	6.514				
611	10.0				
612	6.258				
613	10.0				
614	6.971				
615	6.968				
616	10.0				
617	6.492				
618	10.0				
619	5.979				
620	5.943				
621	10.0				
622	6.383				
623	10.0				
624	6.625				
625	6.663				
626	8.011				
627	6.042				
628	7.423				
629	6.392				
630	7.695				
631	10.0				
632	10.0				
633	6.333				
634	6.429				
635	10.0				
636	6.401				
637	6.186				
638	6.504				
639	6.441				
640	7.467				
641	10.0				
642	6.092				
643	6.696				
644	6.823				
645	6.956				
646	6.225				
647	6.546				
648	6.459				
649	6.299				
650	10.0				
651	10.0				
652	10.0				
653	6.905				
654	7.619				
655	6.918				
656	6.368				
657	6.446				
658	6.732				
659	7.558				
660	6.894				
661	6.186				
662	7.064				
663	6.161				
664	6.352				
665	10.0				
666	6.279				
667	6.303				
668	6.361				
669	6.534				
670	6.293				
671	6.556				
672	6.299				
673	6.815				
674	6.359				
675	6.28				
676	6.813				
677	6.062				
678	6.572				
679	10.0				
680	10.0				
681	6.492				
682	6.319				
683	6.199				
684	7.21				
685	6.243				
686	6.387				
687	6.301				
688	6.278				
689	10.0				
690	6.194				
691	10.0				
692	6.135				
693	5.946				
694	6.091				
695	6.613				
696	10.0				
697	5.901				
698	6.518				
699	6.271				
700	5.688				
701	5.709				
702	5.3				
703	4.701				
704	4.091				
705	3.774				
706	3.855				
707	4.039				
708	3.983				
709	4.072				
710	4.297				
711	4.462				
712	4.207				
713	4.042				
714	3.996				
715	3.974				
716	4.026				
717	4.204				
718	4.072				
719	3.989				
720	4.816				
721	4.806				
722	4.422				
723	4.278				
724	4.219				
725	4.197				
726	4.267				
727	4.456				
728	4.845				
729	5.059				
730	5.272				
731	5.378				
732	5.183				
733	5.13				
734	4.781				
735	4.403				
736	3.848				
737	3.691				
738	4.112				
739	4.488				
740	4.798				
741	4.959				
742	5.032				
743	5.113				
744	5.097				
745	5.121				
746	5.146				
747	5.005				
748	5.168				
749	5.27				
750	5.165				
751	5.228				
752	4.996				
753	5.055				
754	4.838				
755	4.845				
756	4.744				
757	4.539				
758	4.385				
759	4.137				
760	3.879				
761	3.579				
762	3.414				
763	3.542				
764	3.754				
765	3.99				
766	4.142				
767	4.337				
768	4.427				
769	4.499				
770	4.57				
771	4.633				
772	4.586				
773	4.497				
774	4.557				
775	4.634				
776	4.665				
777	4.557				
778	4.526				
779	4.494				
780	4.511				
781	4.437				
782	4.341				
783	4.316				
784	4.18				
785	4.075				
786	3.947				
787	3.811				
788	3.645				
789	3.487				
790	3.267				
791	3.079				
792	2.949				
793	2.891				
794	2.971				
795	3.089				
796	3.232				
797	3.339				
798	3.456				
799	3.526				
800	3.581				
