Wavelength	Transmittance	hex_color	Manufacturer	Name	Filter Number
350	0.0		Omega	475-625DBEX Dual Band	XF1420/25
351	0.0				
352	0.0				
353	0.0				
354	0.0				
355	0.0				
356	0.0				
357	0.0				
358	0.0				
359	0.0				
360	0.0				
361	0.0				
362	0.0				
363	0.0				
364	0.0				
365	0.0				
366	0.0				
367	0.0				
368	0.0				
369	0.0				
370	0.0				
371	0.0				
372	0.0				
373	0.0				
374	0.0				
375	0.0				
376	0.0				
377	0.0				
378	0.0				
379	0.0				
380	0.0				
381	0.0				
382	0.0				
383	0.0				
384	0.0				
385	0.0				
386	0.0				
387	0.0				
388	0.0				
389	0.0				
390	0.0				
391	0.0				
392	0.0				
393	0.0				
394	0.0				
395	0.0				
396	0.0				
397	0.0				
398	0.0				
399	0.0				
400	0.0				
401	0.0				
402	0.0				
403	0.0				
404	0.0				
405	0.0				
406	0.0				
407	0.0				
408	0.002				
409	0.001				
410	0.001				
411	0.003				
412	0.001				
413	0.001				
414	0.001				
415	0.005				
416	0.002				
417	0.0				
418	0.001				
419	0.013				
420	0.013				
421	0.003				
422	0.026				
423	0.064				
424	0.004				
425	0.001				
426	0.002				
427	0.005				
428	0.023				
429	0.031				
430	0.024				
431	0.049				
432	0.136				
433	0.14				
434	0.045				
435	0.011				
436	0.005				
437	0.003				
438	0.003				
439	0.003				
440	0.005				
441	0.012				
442	0.039				
443	0.194				
444	1.457				
445	9.432				
446	25.7				
447	43.948				
448	65.674				
449	75.512				
450	61.113				
451	46.601				
452	46.603				
453	60.145				
454	79.814				
455	91.789				
456	94.165				
457	93.789				
458	93.616				
459	94.944				
460	96.389				
461	95.711				
462	94.644				
463	95.531				
464	96.373				
465	94.623				
466	91.92				
467	90.894				
468	92.012				
469	93.836				
470	94.388				
471	91.638				
472	86.18				
473	81.516				
474	80.486				
475	81.729				
476	80.347				
477	74.358				
478	68.584				
479	67.731				
480	70.964				
481	72.634				
482	69.316				
483	65.581				
484	66.478				
485	71.645				
486	76.006				
487	76.613				
488	77.048				
489	79.349				
490	81.381				
491	83.319				
492	45.549				
493	4.233				
494	0.183				
495	0.014				
496	0.002				
497	0.0				
498	0.0				
499	0.0				
500	0.0				
501	0.0				
502	0.0				
503	0.0				
504	0.0				
505	0.0				
506	0.0				
507	0.0				
508	0.0				
509	0.0				
510	0.0				
511	0.0				
512	0.0				
513	0.0				
514	0.0				
515	0.0				
516	0.0				
517	0.0				
518	0.0				
519	0.0				
520	0.0				
521	0.0				
522	0.0				
523	0.0				
524	0.0				
525	0.0				
526	0.0				
527	0.0				
528	0.0				
529	0.0				
530	0.0				
531	0.0				
532	0.0				
533	0.0				
534	0.0				
535	0.0				
536	0.0				
537	0.0				
538	0.0				
539	0.0				
540	0.0				
541	0.0				
542	0.0				
543	0.0				
544	0.0				
545	0.0				
546	0.0				
547	0.0				
548	0.0				
549	0.0				
550	0.0				
551	0.0				
552	0.0				
553	0.0				
554	0.0				
555	0.0				
556	0.0				
557	0.0				
558	0.0				
559	0.0				
560	0.0				
561	0.0				
562	0.0				
563	0.0				
564	0.0				
565	0.0				
566	0.0				
567	0.0				
568	0.0				
569	0.0				
570	0.0				
571	0.0				
572	0.0				
573	0.0				
574	0.0				
575	0.0				
576	0.0				
577	0.0				
578	0.0				
579	0.0				
580	0.0				
581	0.0				
582	0.0				
583	0.0				
584	0.0				
585	0.0				
586	0.0				
587	0.0				
588	0.0				
589	0.0				
590	0.0				
591	0.0				
592	0.0				
593	0.0				
594	0.0				
595	0.0				
596	0.0				
597	0.001				
598	0.005				
599	0.031				
600	0.262				
601	3.093				
602	29.317				
603	83.314				
604	95.304				
605	94.064				
606	90.66				
607	90.178				
608	93.427				
609	96.218				
610	95.552				
611	92.984				
612	91.807				
613	92.99				
614	95.397				
615	97.242				
616	97.892				
617	97.996				
618	98.222				
619	98.388				
620	98.031				
621	97.09				
622	96.177				
623	95.907				
624	96.344				
625	97.036				
626	97.477				
627	97.473				
628	97.144				
629	96.716				
630	96.385				
631	96.241				
632	96.444				
633	97.069				
634	97.854				
635	98.31				
636	98.367				
637	98.241				
638	98.2				
639	98.303				
640	98.308				
641	98.09				
642	97.573				
643	96.732				
644	96.194				
645	94.92				
646	87.721				
647	77.481				
648	73.681				
649	41.086				
650	6.428				
651	0.737				
652	0.138				
653	0.037				
654	0.013				
655	0.006				
656	0.003				
657	0.002				
658	0.001				
659	0.001				
660	0.001				
661	0.0				
662	0.0				
663	0.0				
664	0.0				
665	0.0				
666	0.0				
667	0.0				
668	0.0				
669	0.0				
670	0.0				
671	0.0				
672	0.0				
673	0.0				
674	0.0				
675	0.0				
676	0.0				
677	0.0				
678	0.0				
679	0.0				
680	0.0				
681	0.0				
682	0.0				
683	0.0				
684	0.0				
685	0.0				
686	0.0				
687	0.0				
688	0.0				
689	0.0				
690	0.0				
691	0.0				
692	0.0				
693	0.0				
694	0.0				
695	0.0				
696	0.0				
697	0.0				
698	0.0				
699	0.0				
700	0.0				
701	0.0				
702	0.0				
703	0.0				
704	0.0				
705	0.0				
706	0.0				
707	0.0				
708	0.0				
709	0.0				
710	0.0				
711	0.0				
712	0.0				
713	0.0				
714	0.0				
715	0.0				
716	0.0				
717	0.0				
718	0.0				
719	0.0				
720	0.0				
721	0.0				
722	0.0				
723	0.0				
724	0.0				
725	0.0				
726	0.0				
727	0.0				
728	0.0				
729	0.0				
730	0.0				
731	0.0				
732	0.0				
733	0.0				
734	0.0				
735	0.0				
736	0.0				
737	0.0				
738	0.0				
739	0.0				
740	0.0				
741	0.0				
742	0.0				
743	0.0				
744	0.0				
745	0.0				
746	0.0				
747	0.0				
748	0.0				
749	0.0				
750	0.0				
