Wavelength	Transmittance	hex_color	Manufacturer	Name	Filter Number
300	0.0		Chroma		ZET405/473/561/640m
301	0.0				
302	0.0				
303	0.0				
304	0.0				
305	0.0				
306	0.0				
307	0.0				
308	0.0				
309	0.0				
310	0.0				
311	0.0				
312	0.0				
313	0.0				
314	0.0				
315	0.0				
316	0.0				
317	0.0				
318	0.0				
319	0.0				
320	0.0				
321	0.0				
322	0.0				
323	0.0				
324	0.0				
325	0.0				
326	0.0				
327	0.0				
328	0.0				
329	0.0				
330	0.0				
331	0.0				
332	0.0				
333	0.0				
334	0.0				
335	0.0				
336	0.0				
337	0.0				
338	0.0				
339	0.0				
340	0.0				
341	0.0				
342	0.0				
343	0.0				
344	0.0				
345	0.0				
346	0.0				
347	0.0				
348	0.0				
349	0.0				
350	0.0				
351	0.0				
352	0.0				
353	0.0				
354	0.0				
355	0.0				
356	0.0				
357	0.0				
358	0.0				
359	0.0				
360	0.0				
361	0.0				
362	0.0				
363	0.0				
364	0.0				
365	0.0				
366	0.0				
367	0.0				
368	0.0				
369	0.0				
370	0.0				
371	0.0				
372	0.0				
373	0.0				
374	0.0				
375	0.0				
376	0.0				
377	0.0				
378	0.0				
379	0.0				
380	0.0				
381	0.0				
382	0.0				
383	0.0				
384	0.0				
385	0.0				
386	0.0				
387	0.0				
388	0.0				
389	0.0				
390	0.0				
391	0.0				
392	0.0				
393	0.0				
394	0.0				
395	0.0				
396	0.0				
397	0.0				
398	0.0				
399	0.0				
400	0.0				
401	0.0				
402	0.0				
403	0.0				
404	0.0				
405	0.0				
406	0.0				
407	0.0				
408	0.0				
409	0.0				
410	0.0				
411	0.0				
412	0.0				
413	0.0				
414	0.0				
415	0.0				
416	0.0				
417	0.001				
418	0.008				
419	0.587				
420	44.986				
421	91.448				
422	93.755				
423	92.083				
424	92.133				
425	95.471				
426	96.137				
427	95.584				
428	94.586				
429	95.938				
430	93.185				
431	93.685				
432	96.144				
433	92.813				
434	90.472				
435	93.434				
436	94.24				
437	95.55				
438	95.692				
439	94.16				
440	92.129				
441	90.068				
442	92.773				
443	96.999				
444	96.772				
445	94.719				
446	93.77				
447	95.08				
448	95.999				
449	95.154				
450	95.932				
451	97.106				
452	96.946				
453	97.243				
454	96.693				
455	94.908				
456	92.77				
457	92.705				
458	94.037				
459	96.042				
460	94.443				
461	86.336				
462	90.188				
463	41.476				
464	3.71				
465	0.209				
466	0.01				
467	0.001				
468	0.0				
469	0.0				
470	0.0				
471	0.0				
472	0.0				
473	0.0				
474	0.0				
475	0.0				
476	0.0				
477	0.0				
478	0.001				
479	0.008				
480	0.153				
481	12.032				
482	72.305				
483	91.176				
484	85.616				
485	92.196				
486	96.283				
487	93.001				
488	90.084				
489	90.366				
490	93.601				
491	95.817				
492	97.113				
493	93.349				
494	89.832				
495	91.294				
496	89.406				
497	88.855				
498	94.404				
499	95.349				
500	93.723				
501	95.156				
502	94.26				
503	93.787				
504	96.221				
505	96.231				
506	95.577				
507	97.135				
508	97.032				
509	95.787				
510	96.484				
511	97.679				
512	97.67				
513	95.67				
514	92.599				
515	91.193				
516	93.702				
517	97.026				
518	98.005				
519	98.172				
520	97.654				
521	96.889				
522	95.455				
523	94.743				
524	94.369				
525	93.493				
526	92.737				
527	92.1				
528	93.158				
529	96.079				
530	96.4				
531	91.97				
532	88.923				
533	92.069				
534	95.501				
535	93.001				
536	91.376				
537	94.78				
538	97.039				
539	96.093				
540	96.614				
541	97.97				
542	97.844				
543	97.404				
544	95.256				
545	95.034				
546	97.031				
547	95.979				
548	97.062				
549	62.419				
550	4.146				
551	1.578				
552	0.119				
553	0.017				
554	0.004				
555	0.001				
556	0.001				
557	0.0				
558	0.0				
559	0.0				
560	0.0				
561	0.0				
562	0.0				
563	0.0				
564	0.0				
565	0.0				
566	0.0				
567	0.001				
568	0.002				
569	0.007				
570	0.033				
571	0.248				
572	4.236				
573	46.146				
574	83.475				
575	92.595				
576	90.295				
577	90.172				
578	94.868				
579	95.86				
580	92.45				
581	88.85				
582	89.119				
583	91.552				
584	92.298				
585	92.532				
586	95.427				
587	97.257				
588	94.188				
589	91.097				
590	92.295				
591	95.034				
592	95.226				
593	92.839				
594	91.596				
595	92.352				
596	94.015				
597	95.897				
598	97.345				
599	97.276				
600	95.505				
601	94.143				
602	93.981				
603	94.136				
604	93.038				
605	90.779				
606	87.534				
607	85.027				
608	85.929				
609	91.147				
610	96.697				
611	97.208				
612	93.56				
613	89.151				
614	86.045				
615	87.541				
616	94.261				
617	97.528				
618	94.083				
619	48.142				
620	4.742				
621	2.136				
622	0.552				
623	0.143				
624	0.033				
625	0.007				
626	0.002				
627	0.001				
628	0.0				
629	0.0				
630	0.0				
631	0.0				
632	0.0				
633	0.0				
634	0.0				
635	0.0				
636	0.0				
637	0.0				
638	0.0				
639	0.0				
640	0.0				
641	0.0				
642	0.0				
643	0.0				
644	0.0				
645	0.0				
646	0.0				
647	0.0				
648	0.0				
649	0.0				
650	0.0				
651	0.0				
652	0.001				
653	0.002				
654	0.005				
655	0.021				
656	0.115				
657	0.966				
658	12.04				
659	53.239				
660	74.189				
661	89.971				
662	97.15				
663	97.577				
664	98.448				
665	98.486				
666	97.502				
667	95.611				
668	93.766				
669	93.243				
670	94.864				
671	96.724				
672	96.475				
673	94.192				
674	93.357				
675	94.994				
676	97.768				
677	97.908				
678	94.699				
679	90.588				
680	88.548				
681	89.58				
682	92.533				
683	95.087				
684	96.885				
685	97.544				
686	97.99				
687	98.314				
688	97.361				
689	95.215				
690	93.039				
691	91.179				
692	90.96				
693	92.173				
694	93.777				
695	94.606				
696	95.159				
697	94.866				
698	94.17				
699	93.63				
700	93.455				
701	94.065				
702	95.044				
703	96.452				
704	97.273				
705	97.121				
706	96.358				
707	95.698				
708	95.268				
709	95.254				
710	95.762				
711	95.591				
712	94.918				
713	93.834				
714	93.0				
715	93.105				
716	93.915				
717	95.019				
718	95.691				
719	95.254				
720	93.974				
721	92.806				
722	92.19				
723	92.243				
724	92.882				
725	93.605				
726	94.653				
727	95.187				
728	95.345				
729	95.162				
730	94.806				
731	94.109				
732	93.734				
733	93.422				
734	93.745				
735	94.391				
736	95.688				
737	96.773				
738	97.651				
739	98.123				
740	98.34				
741	98.142				
742	98.085				
743	97.609				
744	97.388				
745	97.25				
746	97.282				
747	97.28				
748	97.625				
749	96.603				
750	95.275				
751	93.036				
752	90.495				
753	88.551				
754	87.921				
755	87.559				
756	88.637				
757	89.875				
758	92.304				
759	93.428				
760	94.438				
761	95.63				
762	96.43				
763	97.362				
764	97.456				
765	97.634				
766	98.051				
767	98.494				
768	98.024				
769	97.763				
770	97.88				
771	97.257				
772	96.101				
773	95.286				
774	93.629				
775	91.743				
776	89.759				
777	89.256				
778	88.402				
779	89.423				
780	90.989				
781	92.049				
782	92.836				
783	93.01				
784	93.26				
785	93.681				
786	91.679				
787	86.938				
788	82.101				
789	77.118				
790	37.644				
791	18.847				
792	3.591				
793	1.464				
794	0.506				
795	0.206				
796	0.093				
797	0.047				
798	0.025				
799	0.015				
800	0.016				
801	0.01				
802	0.006				
803	0.004				
804	0.003				
805	0.002				
806	0.002				
807	0.002				
808	0.001				
809	0.002				
810	0.001				
811	0.001				
812	0.002				
813	0.002				
814	0.003				
815	0.004				
816	0.007				
817	0.014				
818	0.053				
819	0.181				
820	0.342				
821	0.509				
822	0.633				
823	0.575				
824	0.44				
825	0.292				
826	0.164				
827	0.148				
828	0.189				
829	0.317				
830	0.795				
831	3.469				
832	10.359				
833	9.107				
834	5.086				
835	2.708				
836	4.462				
837	5.861				
838	3.906				
839	2.247				
840	0.972				
841	0.099				
842	0.018				
843	0.007				
844	0.004				
845	0.002				
846	0.001				
847	0.001				
848	0.001				
849	0.001				
850	0.001				
851	0.0				
852	0.0				
853	0.0				
854	0.0				
855	0.001				
856	0.001				
857	0.001				
858	0.002				
859	0.004				
860	0.016				
861	0.358				
862	1.057				
863	1.763				
864	1.686				
865	0.934				
866	0.196				
867	0.013				
868	0.005				
869	0.002				
870	0.001				
871	0.001				
872	0.0				
873	0.0				
874	0.0				
875	0.0				
876	0.0				
877	0.0				
878	0.0				
879	0.0				
880	0.0				
881	0.0				
882	0.0				
883	0.0				
884	0.0				
885	0.0				
886	0.0				
887	0.0				
888	0.0				
889	0.0				
890	0.0				
891	0.001				
892	0.001				
893	0.003				
894	0.004				
895	0.004				
896	0.004				
897	0.004				
898	0.003				
899	0.002				
900	0.002				
901	0.002				
902	0.001				
903	0.001				
904	0.001				
905	0.001				
906	0.001				
907	0.001				
908	0.0				
909	0.001				
910	0.001				
911	0.001				
912	0.001				
913	0.002				
914	0.006				
915	0.065				
916	0.181				
917	0.087				
918	0.007				
919	0.002				
920	0.001				
921	0.001				
922	0.001				
923	0.0				
924	0.0				
925	0.0				
926	0.0				
927	0.001				
928	0.0				
929	0.001				
930	0.001				
931	0.001				
932	0.001				
933	0.001				
934	0.002				
935	0.003				
936	0.006				
937	0.012				
938	0.037				
939	0.478				
940	3.726				
941	1.317				
942	0.074				
943	0.032				
944	0.019				
945	0.014				
946	0.01				
947	0.008				
948	0.006				
949	0.005				
950	0.004				
951	0.004				
952	0.003				
953	0.003				
954	0.002				
955	0.002				
956	0.002				
957	0.001				
958	0.002				
959	0.001				
960	0.001				
961	0.001				
962	0.001				
963	0.001				
964	0.001				
965	0.001				
966	0.001				
967	0.001				
968	0.002				
969	0.002				
970	0.002				
971	0.003				
972	0.003				
973	0.004				
974	0.005				
975	0.006				
976	0.008				
977	0.011				
978	0.016				
979	0.024				
980	0.039				
981	0.072				
982	0.151				
983	0.402				
984	2.025				
985	30.509				
986	16.201				
987	2.566				
988	1.594				
989	1.64				
990	2.663				
991	11.551				
992	39.951				
993	5.326				
994	0.955				
995	0.376				
996	0.198				
997	0.123				
998	0.087				
999	0.067				
1000	0.055				
1001	0.048				
1002	0.045				
1003	0.043				
1004	0.045				
1005	0.048				
1006	0.055				
1007	0.066				
1008	0.087				
1009	0.122				
1010	0.195				
1011	0.366				
1012	0.912				
1013	5.733				
1014	30.453				
1015	5.484				
1016	1.248				
1017	0.658				
1018	0.461				
1019	0.384				
1020	0.363				
1021	0.392				
1022	0.47				
1023	0.652				
1024	1.09				
1025	2.384				
1026	10.447				
1027	44.725				
1028	13.047				
1029	3.399				
1030	1.79				
1031	1.305				
1032	1.189				
1033	1.329				
1034	1.683				
1035	1.912				
1036	1.337				
1037	0.623				
1038	0.286				
1039	0.143				
1040	0.081				
1041	0.05				
1042	0.033				
1043	0.024				
1044	0.017				
1045	0.013				
1046	0.011				
1047	0.009				
1048	0.008				
1049	0.007				
1050	0.006				
1051	0.006				
1052	0.006				
1053	0.006				
1054	0.006				
1055	0.006				
1056	0.006				
1057	0.006				
1058	0.007				
1059	0.008				
1060	0.009				
1061	0.011				
1062	0.013				
1063	0.017				
1064	0.022				
1065	0.03				
1066	0.044				
1067	0.068				
1068	0.118				
1069	0.224				
1070	0.506				
1071	1.429				
1072	2.793				
1073	2.075				
1074	1.09				
1075	0.694				
1076	0.527				
1077	0.479				
1078	0.482				
1079	0.554				
1080	0.729				
1081	1.163				
1082	2.559				
1083	12.498				
1084	45.825				
1085	6.979				
1086	1.492				
1087	0.63				
1088	0.35				
1089	0.224				
1090	0.158				
1091	0.12				
1092	0.095				
1093	0.079				
1094	0.068				
1095	0.06				
1096	0.054				
1097	0.05				
1098	0.048				
1099	0.046				
1100	0.045				
