Wavelength	Transmittance	hex_color	Manufacturer	Name	Filter Number
300	0.0		Chroma		ET665lp
301	0.0				
302	0.0				
303	0.0				
304	0.0				
305	0.0				
306	0.0				
307	0.0				
308	0.0				
309	0.0				
310	0.0				
311	0.0				
312	0.0				
313	0.0				
314	0.0				
315	0.0				
316	0.0				
317	0.0				
318	0.0				
319	0.0				
320	0.0				
321	0.0				
322	0.0				
323	0.0				
324	0.0				
325	0.0				
326	0.0				
327	0.0				
328	0.0				
329	0.0				
330	0.0				
331	0.0				
332	0.0				
333	0.0				
334	0.0				
335	0.0				
336	0.0				
337	0.0				
338	0.0				
339	0.0				
340	0.0				
341	0.0				
342	0.0				
343	0.0				
344	0.0				
345	0.0				
346	0.0				
347	0.0				
348	0.0				
349	0.0				
350	0.0				
351	0.0				
352	0.0				
353	0.0				
354	0.0				
355	0.0				
356	0.0				
357	0.0				
358	0.0				
359	0.0				
360	0.0				
361	0.0				
362	0.0				
363	0.0				
364	0.0				
365	0.0				
366	0.0				
367	0.0				
368	0.0				
369	0.0				
370	0.0				
371	0.0				
372	0.0				
373	0.0				
374	0.0				
375	0.0				
376	0.0				
377	0.0				
378	0.0				
379	0.0				
380	0.0				
381	0.0				
382	0.0				
383	0.0				
384	0.0				
385	0.0				
386	0.0				
387	0.0				
388	0.0				
389	0.0				
390	0.0				
391	0.0				
392	0.0				
393	0.0				
394	0.0				
395	0.0				
396	0.0				
397	0.0				
398	0.0				
399	0.0				
400	0.0				
401	0.0				
402	0.0				
403	0.0				
404	0.0				
405	0.0				
406	0.0				
407	0.0				
408	0.0				
409	0.0				
410	0.0				
411	0.0				
412	0.0				
413	0.0				
414	0.0				
415	0.0				
416	0.0				
417	0.0				
418	0.0				
419	0.0				
420	0.0				
421	0.0				
422	0.0				
423	0.0				
424	0.0				
425	0.0				
426	0.0				
427	0.0				
428	0.0				
429	0.0				
430	0.0				
431	0.0				
432	0.0				
433	0.0				
434	0.0				
435	0.0				
436	0.0				
437	0.0				
438	0.0				
439	0.0				
440	0.0				
441	0.0				
442	0.0				
443	0.0				
444	0.0				
445	0.0				
446	0.0				
447	0.0				
448	0.0				
449	0.0				
450	0.0				
451	0.0				
452	0.0				
453	0.0				
454	0.0				
455	0.0				
456	0.0				
457	0.0				
458	0.0				
459	0.0				
460	0.0				
461	0.0				
462	0.0				
463	0.0				
464	0.0				
465	0.0				
466	0.0				
467	0.0				
468	0.0				
469	0.0				
470	0.0				
471	0.0				
472	0.0				
473	0.0				
474	0.0				
475	0.0				
476	0.0				
477	0.0				
478	0.0				
479	0.0				
480	0.0				
481	0.0				
482	0.0				
483	0.0				
484	0.0				
485	0.0				
486	0.0				
487	0.0				
488	0.0				
489	0.0				
490	0.0				
491	0.0				
492	0.0				
493	0.0				
494	0.0				
495	0.0				
496	0.0				
497	0.0				
498	0.0				
499	0.0				
500	0.0				
501	0.0				
502	0.0				
503	0.0				
504	0.0				
505	0.0				
506	0.0				
507	0.0				
508	0.0				
509	0.0				
510	0.0				
511	0.0				
512	0.0				
513	0.0				
514	0.0				
515	0.0				
516	0.0				
517	0.0				
518	0.0				
519	0.0				
520	0.0				
521	0.0				
522	0.0				
523	0.0				
524	0.0				
525	0.0				
526	0.0				
527	0.0				
528	0.0				
529	0.0				
530	0.0				
531	0.0				
532	0.0				
533	0.0				
534	0.0				
535	0.0				
536	0.0				
537	0.0				
538	0.0				
539	0.0				
540	0.0				
541	0.0				
542	0.0				
543	0.0				
544	0.0				
545	0.0				
546	0.0				
547	0.0				
548	0.0				
549	0.0				
550	0.0				
551	0.0				
552	0.0				
553	0.0				
554	0.0				
555	0.0				
556	0.0				
557	0.0				
558	0.0				
559	0.0				
560	0.0				
561	0.0				
562	0.0				
563	0.0				
564	0.0				
565	0.0				
566	0.0				
567	0.0				
568	0.0				
569	0.0				
570	0.0				
571	0.0				
572	0.0				
573	0.0				
574	0.0				
575	0.0				
576	0.0				
577	0.0				
578	0.0				
579	0.0				
580	0.0				
581	0.0				
582	0.0				
583	0.0				
584	0.0				
585	0.0				
586	0.0				
587	0.0				
588	0.0				
589	0.0				
590	0.0				
591	0.0				
592	0.0				
593	0.0				
594	0.0				
595	0.0				
596	0.0				
597	0.0				
598	0.0				
599	0.0				
600	0.0				
601	0.0				
602	0.0				
603	0.0				
604	0.0				
605	0.0				
606	0.0				
607	0.0				
608	0.0				
609	0.0				
610	0.0				
611	0.0				
612	0.0				
613	0.0				
614	0.0				
615	0.0				
616	0.0				
617	0.0				
618	0.0				
619	0.0				
620	0.0				
621	0.0				
622	0.0				
623	0.0				
624	0.0				
625	0.0				
626	0.0				
627	0.0				
628	0.0				
629	0.0				
630	0.0				
631	0.0				
632	0.0				
633	0.0				
634	0.0				
635	0.0				
636	0.0				
637	0.0				
638	0.0				
639	0.0				
640	0.0				
641	0.0				
642	0.0				
643	0.0				
644	0.0				
645	0.0				
646	0.0				
647	0.0				
648	0.0				
649	0.0				
650	0.0				
651	0.0				
652	0.0				
653	0.0				
654	0.001				
655	0.002				
656	0.004				
657	0.01				
658	0.025				
659	0.067				
660	0.194				
661	0.618				
662	2.261				
663	9.029				
664	32.895				
665	74.037				
666	95.582				
667	98.985				
668	99.228				
669	98.834				
670	98.683				
671	98.585				
672	98.572				
673	99.131				
674	99.121				
675	99.001				
676	98.739				
677	98.572				
678	98.216				
679	98.261				
680	98.4				
681	98.671				
682	98.841				
683	99.13				
684	99.014				
685	99.239				
686	99.198				
687	99.077				
688	99.328				
689	99.379				
690	99.35				
691	99.497				
692	99.335				
693	99.54				
694	99.214				
695	99.439				
696	99.176				
697	99.458				
698	99.487				
699	99.457				
700	99.402				
701	99.045				
702	98.936				
703	98.568				
704	98.676				
705	98.503				
706	98.353				
707	98.39				
708	98.625				
709	99.154				
710	99.229				
711	99.437				
712	99.433				
713	99.37				
714	99.108				
715	99.158				
716	98.891				
717	99.167				
718	99.078				
719	99.213				
720	99.213				
721	99.27				
722	99.457				
723	99.414				
724	99.676				
725	99.457				
726	99.378				
727	98.914				
728	98.722				
729	98.72				
730	98.968				
731	98.9				
732	99.216				
733	99.196				
734	99.017				
735	98.831				
736	98.864				
737	99.005				
738	98.474				
739	98.449				
740	98.567				
741	98.668				
742	98.5				
743	98.894				
744	99.147				
745	98.887				
746	98.853				
747	99.329				
748	99.111				
749	98.763				
750	98.908				
751	98.631				
752	98.788				
753	98.3				
754	98.625				
755	98.841				
756	98.751				
757	98.834				
758	98.899				
759	99.221				
760	99.084				
761	99.105				
762	99.463				
763	99.287				
764	98.762				
765	98.981				
766	98.562				
767	98.797				
768	98.622				
769	98.172				
770	98.042				
771	97.878				
772	97.781				
773	97.8				
774	97.673				
775	97.502				
776	97.683				
777	97.474				
778	97.503				
779	97.773				
780	97.826				
781	98.094				
782	98.295				
783	98.315				
784	99.177				
785	98.764				
786	98.557				
787	98.513				
788	98.557				
789	98.544				
790	97.994				
791	97.664				
792	97.543				
793	98.106				
794	97.167				
795	97.725				
796	98.32				
797	97.51				
798	98.08				
799	97.834				
800	98.163				
801	98.261				
802	98.404				
803	99.177				
804	98.753				
805	98.578				
806	99.036				
807	99.343				
808	99.2				
809	99.302				
810	99.826				
811	98.861				
812	99.309				
813	98.653				
814	99.535				
815	98.849				
816	98.835				
817	98.77				
818	99.115				
819	98.892				
820	98.486				
821	99.234				
822	98.162				
823	98.276				
824	98.451				
825	98.335				
826	98.136				
827	98.747				
828	99.027				
829	99.342				
830	98.823				
831	98.154				
832	99.098				
833	99.376				
834	98.566				
835	98.618				
836	98.805				
837	98.286				
838	98.651				
839	98.286				
840	98.329				
841	97.95				
842	97.689				
843	97.48				
844	97.181				
845	97.285				
846	97.947				
847	97.944				
848	97.89				
849	98.292				
850	98.794				
851	98.572				
852	97.695				
853	99.202				
854	99.364				
855	99.869				
856	98.598				
857	98.774				
858	99.314				
859	99.54				
860	98.945				
861	97.77				
862	98.987				
863	98.611				
864	98.646				
865	99.102				
866	98.257				
867	98.274				
868	97.843				
869	97.753				
870	98.146				
871	97.397				
872	98.685				
873	98.575				
874	98.312				
875	97.825				
876	97.8				
877	99.198				
878	98.748				
879	97.505				
880	98.1				
881	98.888				
882	98.939				
883	98.724				
884	98.859				
885	98.928				
886	98.066				
887	99.632				
888	98.565				
889	98.134				
890	98.007				
891	97.336				
892	97.598				
893	96.737				
894	96.109				
895	95.766				
896	95.796				
897	96.75				
898	95.725				
899	95.623				
900	95.468				
901	95.714				
902	95.551				
903	95.979				
904	96.524				
905	96.276				
906	97.42				
907	97.091				
908	98.057				
909	98.582				
910	98.991				
911	98.177				
912	98.709				
913	99.941				
914	98.315				
915	98.368				
916	98.771				
917	99.198				
918	98.778				
919	98.451				
920	99.256				
921	98.708				
922	97.091				
923	97.859				
924	97.825				
925	96.806				
926	96.078				
927	97.119				
928	97.03				
929	95.676				
930	97.01				
931	96.456				
932	95.822				
933	95.272				
934	95.256				
935	95.39				
936	96.088				
937	96.211				
938	96.355				
939	96.795				
940	96.272				
941	96.019				
942	97.193				
943	97.713				
944	97.341				
945	97.588				
946	98.937				
947	99.428				
948	99.269				
949	100.26				
950	99.276				
951	99.585				
952	99.503				
953	98.444				
954	99.516				
955	98.605				
956	97.4				
957	98.43				
958	97.711				
959	97.645				
960	96.266				
961	95.31				
962	94.281				
963	94.244				
964	92.761				
965	93.234				
966	93.411				
967	92.925				
968	92.618				
969	91.984				
970	92.043				
971	93.294				
972	91.787				
973	92.996				
974	93.702				
975	93.591				
976	94.344				
977	95.47				
978	96.339				
979	95.624				
980	97.9				
981	96.617				
982	97.472				
983	97.64				
984	98.395				
985	99.451				
986	99.747				
987	99.071				
988	98.75				
989	99.652				
990	100.107				
991	99.453				
992	100.056				
993	99.252				
994	99.519				
995	99.652				
996	98.962				
997	98.92				
998	97.74				
999	98.332				
1000	98.48				
