Wavelength	Transmittance	hex_color	Manufacturer	Name	Filter Number
775	0.0		Chroma		RET785/6x
776	0.0				
777	0.001				
778	0.002				
779	0.018				
780	0.105				
781	7.016				
782	90.248				
783	97.896				
784	97.908				
785	98.013				
786	97.172				
787	92.379				
788	4.709				
789	0.186				
790	0.011				
791	0.002				
792	0.0				
793	0.0				
794	0.0				
795	0.0				
