Wavelength	Transmittance	hex_color	Manufacturer	Name	Filter Number
300	0.0		Chroma		59001m
301	0.0				
302	0.0				
303	0.0				
304	0.0				
305	0.0				
306	0.0				
307	0.0				
308	0.0				
309	0.0				
310	0.0				
311	0.0				
312	0.0				
313	0.0				
314	0.0				
315	0.0				
316	0.0				
317	0.0				
318	0.0				
319	0.0				
320	0.0				
321	0.0				
322	0.0				
323	0.0				
324	0.0				
325	0.0				
326	0.0				
327	0.0				
328	0.0				
329	0.0				
330	0.0				
331	0.0				
332	0.0				
333	0.0				
334	0.0				
335	0.0				
336	0.0				
337	0.0				
338	0.0				
339	0.0				
340	0.0				
341	0.0				
342	0.0				
343	0.0				
344	0.0				
345	0.0				
346	0.0				
347	0.0				
348	0.0				
349	0.0				
350	0.0				
351	0.0				
352	0.0				
353	0.0				
354	0.0				
355	0.0				
356	0.0				
357	0.0				
358	0.0				
359	0.0				
360	0.0				
361	0.0				
362	0.0				
363	0.0				
364	0.0				
365	0.0				
366	0.0				
367	0.0				
368	0.0				
369	0.0				
370	0.0				
371	0.0				
372	0.0				
373	0.0				
374	0.0				
375	0.0				
376	0.0				
377	0.0				
378	0.0				
379	0.0				
380	0.0				
381	0.0				
382	0.0				
383	0.0				
384	0.0				
385	0.0				
386	0.0				
387	0.0				
388	0.0				
389	0.0				
390	0.0				
391	0.0				
392	0.0				
393	0.0				
394	0.0				
395	0.0				
396	0.0				
397	0.0				
398	0.0				
399	0.0				
400	0.0				
401	0.0				
402	0.0				
403	0.0				
404	0.0				
405	0.0				
406	0.0				
407	0.0				
408	0.0				
409	0.0				
410	0.0				
411	0.0				
412	0.0				
413	0.0				
414	0.0				
415	0.0				
416	0.0				
417	0.0				
418	0.0				
419	0.0				
420	0.0				
421	0.0				
422	0.006				
423	0.058				
424	3.748				
425	61.317				
426	95.289				
427	95.746				
428	96.775				
429	97.372				
430	97.568				
431	97.125				
432	96.946				
433	96.271				
434	97.616				
435	96.349				
436	96.292				
437	96.384				
438	95.494				
439	96.513				
440	97.12				
441	96.884				
442	96.763				
443	97.152				
444	97.051				
445	96.377				
446	97.218				
447	97.793				
448	97.27				
449	97.615				
450	96.912				
451	96.993				
452	96.825				
453	95.555				
454	97.017				
455	96.379				
456	96.52				
457	97.205				
458	96.07				
459	94.287				
460	79.524				
461	14.441				
462	0.165				
463	0.007				
464	0.0				
465	0.0				
466	0.0				
467	0.0				
468	0.0				
469	0.0				
470	0.0				
471	0.0				
472	0.0				
473	0.0				
474	0.0				
475	0.0				
476	0.0				
477	0.0				
478	0.0				
479	0.0				
480	0.0				
481	0.0				
482	0.0				
483	0.0				
484	0.0				
485	0.0				
486	0.0				
487	0.0				
488	0.0				
489	0.0				
490	0.0				
491	0.0				
492	0.0				
493	0.0				
494	0.0				
495	0.0				
496	0.0				
497	0.0				
498	0.0				
499	0.0				
500	0.0				
501	0.0				
502	0.0				
503	0.0				
504	0.005				
505	0.065				
506	3.463				
507	56.17				
508	92.703				
509	94.453				
510	95.821				
511	93.15				
512	95.418				
513	96.262				
514	97.06				
515	97.573				
516	96.675				
517	97.069				
518	96.842				
519	94.851				
520	93.581				
521	94.282				
522	96.367				
523	97.993				
524	98.054				
525	97.917				
526	97.855				
527	96.457				
528	95.367				
529	96.708				
530	97.184				
531	94.717				
532	93.328				
533	95.518				
534	97.585				
535	97.686				
536	97.711				
537	97.451				
538	96.434				
539	97.053				
540	97.851				
541	97.097				
542	97.269				
543	97.774				
544	97.552				
545	96.344				
546	94.791				
547	57.112				
548	5.113				
549	0.117				
550	0.006				
551	0.001				
552	0.0				
553	0.0				
554	0.0				
555	0.0				
556	0.0				
557	0.0				
558	0.0				
559	0.0				
560	0.0				
561	0.0				
562	0.0				
563	0.0				
564	0.0				
565	0.0				
566	0.0				
567	0.0				
568	0.0				
569	0.0				
570	0.0				
571	0.0				
572	0.0				
573	0.0				
574	0.0				
575	0.0				
576	0.0				
577	0.0				
578	0.0				
579	0.0				
580	0.0				
581	0.0				
582	0.0				
583	0.0				
584	0.0				
585	0.0				
586	0.0				
587	0.0				
588	0.0				
589	0.0				
590	0.0				
591	0.0				
592	0.0				
593	0.0				
594	0.0				
595	0.0				
596	0.0				
597	0.0				
598	0.0				
599	0.0				
600	0.0				
601	0.0				
602	0.0				
603	0.0				
604	0.0				
605	0.0				
606	0.0				
607	0.0				
608	0.0				
609	0.0				
610	0.0				
611	0.0				
612	0.0				
613	0.0				
614	0.0				
615	0.0				
616	0.0				
617	0.0				
618	0.0				
619	0.0				
620	0.0				
621	0.0				
622	0.0				
623	0.0				
624	0.0				
625	0.0				
626	0.0				
627	0.0				
628	0.0				
629	0.0				
630	0.0				
631	0.0				
632	0.0				
633	0.0				
634	0.0				
635	0.0				
636	0.0				
637	0.0				
638	0.0				
639	0.0				
640	0.0				
641	0.0				
642	0.0				
643	0.0				
644	0.0				
645	0.0				
646	0.0				
647	0.0				
648	0.0				
649	0.0				
650	0.0				
651	0.0				
652	0.0				
653	0.0				
654	0.0				
655	0.0				
656	0.0				
657	0.0				
658	0.0				
659	0.0				
660	0.0				
661	0.0				
662	0.0				
663	0.0				
664	0.0				
665	0.0				
666	0.0				
667	0.0				
668	0.0				
669	0.0				
670	0.0				
671	0.0				
672	0.0				
673	0.0				
674	0.0				
675	0.0				
676	0.0				
677	0.0				
678	0.0				
679	0.0				
680	0.0				
681	0.0				
682	0.0				
683	0.0				
684	0.0				
685	0.0				
686	0.0				
687	0.0				
688	0.0				
689	0.0				
690	0.0				
691	0.0				
692	0.0				
693	0.0				
694	0.0				
695	0.0				
696	0.0				
697	0.0				
698	0.0				
699	0.0				
700	0.0				
701	0.0				
702	0.0				
703	0.0				
704	0.0				
705	0.0				
706	0.0				
707	0.0				
708	0.0				
709	0.0				
710	0.0				
711	0.0				
712	0.0				
713	0.0				
714	0.0				
715	0.0				
716	0.0				
717	0.0				
718	0.0				
719	0.0				
720	0.0				
721	0.0				
722	0.0				
723	0.0				
724	0.0				
725	0.0				
726	0.0				
727	0.0				
728	0.0				
729	0.0				
730	0.0				
731	0.0				
732	0.0				
733	0.0				
734	0.0				
735	0.0				
736	0.0				
737	0.0				
738	0.0				
739	0.0				
740	0.0				
741	0.0				
742	0.0				
743	0.0				
744	0.0				
745	0.0				
746	0.0				
747	0.0				
748	0.0				
749	0.0				
750	0.0				
751	0.0				
752	0.0				
753	0.0				
754	0.0				
755	0.0				
756	0.0				
757	0.0				
758	0.0				
759	0.0				
760	0.0				
761	0.0				
762	0.0				
763	0.0				
764	0.0				
765	0.0				
766	0.0				
767	0.0				
768	0.0				
769	0.0				
770	0.0				
771	0.0				
772	0.0				
773	0.0				
774	0.0				
775	0.0				
776	0.0				
777	0.0				
778	0.0				
779	0.0				
780	0.0				
781	0.0				
782	0.0				
783	0.0				
784	0.0				
785	0.0				
786	0.0				
787	0.0				
788	0.0				
789	0.0				
790	0.0				
791	0.0				
792	0.0				
793	0.0				
794	0.001				
795	0.001				
796	0.001				
797	0.001				
798	0.001				
799	0.002				
800	0.006				
801	0.007				
802	0.007				
803	0.008				
804	0.008				
805	0.007				
806	0.007				
807	0.006				
808	0.006				
809	0.006				
810	0.006				
811	0.006				
812	0.007				
813	0.009				
814	0.014				
815	0.022				
816	0.033				
817	0.045				
818	0.06				
819	0.077				
820	0.096				
821	0.121				
822	0.154				
823	0.196				
824	0.238				
825	0.279				
826	0.315				
827	0.346				
828	0.373				
829	0.396				
830	0.413				
831	0.422				
832	0.417				
833	0.394				
834	0.359				
835	0.32				
836	0.282				
837	0.245				
838	0.211				
839	0.18				
840	0.154				
841	0.132				
842	0.116				
843	0.11				
844	0.111				
845	0.117				
846	0.125				
847	0.134				
848	0.144				
849	0.154				
850	0.164				
851	0.176				
852	0.19				
853	0.21				
854	0.242				
855	0.301				
856	0.441				
857	0.941				
858	0.243				
859	0.294				
860	0.379				
861	0.527				
862	0.808				
863	1.424				
864	3.302				
865	10.954				
866	29.174				
867	43.164				
868	33.184				
869	14.942				
870	6.287				
871	4.149				
872	3.422				
873	3.244				
874	3.45				
875	4.076				
876	5.386				
877	8.201				
878	14.725				
879	30.818				
880	56.195				
881	65.005				
882	45.175				
883	22.837				
884	12.873				
885	8.613				
886	6.526				
887	5.464				
888	4.894				
889	4.616				
890	4.549				
891	4.633				
892	4.836				
893	5.134				
894	5.503				
895	5.92				
896	6.365				
897	6.812				
898	7.275				
899	7.786				
900	8.376				
901	9.13				
902	10.17				
903	11.551				
904	13.53				
905	16.424				
906	20.442				
907	25.977				
908	33.174				
909	40.397				
910	45.076				
911	44.885				
912	40.371				
913	34.338				
914	28.863				
915	24.735				
916	21.98				
917	20.355				
918	19.668				
919	19.859				
920	20.946				
921	23.146				
922	26.638				
923	32.037				
924	40.332				
925	51.927				
926	66.718				
927	82.091				
928	90.395				
929	87.056				
930	75.465				
931	62.215				
932	51.475				
933	43.812				
934	38.771				
935	35.893				
936	34.717				
937	35.072				
938	36.924				
939	40.474				
940	46.125				
941	53.732				
942	63.103				
943	72.776				
944	78.454				
945	76.834				
946	67.969				
947	56.085				
948	45.052				
949	36.233				
950	29.674				
951	25.014				
952	21.698				
953	19.37				
954	17.821				
955	16.849				
956	16.32				
957	16.196				
958	16.447				
959	17.055				
960	18.014				
961	19.384				
962	21.237				
963	23.545				
964	26.491				
965	30.128				
966	34.516				
967	39.743				
968	45.963				
969	53.149				
970	61.158				
971	69.798				
972	78.485				
973	85.632				
974	89.956				
975	89.864				
976	84.952				
977	76.24				
978	65.403				
979	55.01				
980	45.81				
981	38.064				
982	32.087				
983	27.471				
984	23.939				
985	21.294				
986	19.4				
987	18.088				
988	17.258				
989	16.875				
990	16.917				
991	17.41				
992	18.383				
993	19.953				
994	22.333				
995	25.668				
996	30.358				
997	37.063				
998	45.707				
999	56.263				
1000	67.189				
1001	74.188				
1002	73.838				
1003	66.484				
1004	56.054				
1005	46.297				
1006	38.405				
1007	32.541				
1008	28.421				
1009	25.622				
1010	23.809				
1011	22.883				
1012	22.63				
1013	23.016				
1014	23.968				
1015	25.413				
1016	27.289				
1017	29.1				
1018	30.339				
1019	30.296				
1020	28.546				
1021	25.363				
1022	21.453				
1023	17.625				
1024	14.371				
1025	11.77				
1026	9.733				
1027	8.223				
1028	7.069				
1029	6.19				
1030	5.558				
1031	5.087				
1032	4.746				
1033	4.528				
1034	4.411				
1035	4.382				
1036	4.445				
1037	4.597				
1038	4.856				
1039	5.243				
1040	5.794				
1041	6.577				
1042	7.666				
1043	9.16				
1044	11.248				
1045	14.268				
1046	18.516				
1047	24.499				
1048	32.194				
1049	39.682				
1050	43.988				
1051	42.525				
1052	36.783				
1053	30.101				
1054	24.235				
1055	19.908				
1056	16.749				
1057	14.546				
1058	13.057				
1059	12.057				
1060	11.406				
1061	11.117				
1062	11.159				
1063	11.433				
1064	12.016				
1065	12.995				
1066	14.394				
1067	16.37				
1068	19.105				
1069	22.915				
1070	28.295				
1071	35.561				
1072	45.472				
1073	57.976				
1074	71.425				
1075	82.18				
1076	85.826				
1077	81.654				
1078	72.671				
1079	62.975				
1080	54.608				
1081	48.113				
1082	43.687				
1083	40.723				
1084	39.057				
1085	38.841				
1086	39.59				
1087	41.65				
1088	45.045				
1089	49.938				
1090	56.604				
1091	64.426				
1092	73.067				
1093	79.931				
1094	81.896				
1095	77.483				
1096	67.836				
1097	56.017				
1098	45.307				
1099	36.208				
1100	29.459				
