Wavelength	Transmittance	hex_color	Manufacturer	Name	Filter Number
300	0.0		Chroma		zet405488561647mtrf0
301	0.0				
302	0.0				
303	0.0				
304	0.0				
305	0.0				
306	0.0				
307	0.0				
308	0.0				
309	0.0				
310	0.0				
311	0.0				
312	0.0				
313	0.0				
314	0.0				
315	0.0				
316	0.0				
317	0.0				
318	0.0				
319	0.0				
320	0.0				
321	0.0				
322	0.0				
323	0.0				
324	0.0				
325	0.0				
326	0.0				
327	0.0				
328	0.0				
329	0.0				
330	0.0				
331	0.0				
332	0.0				
333	0.0				
334	0.0				
335	0.0				
336	0.0				
337	0.0				
338	0.0				
339	0.0				
340	0.0				
341	0.0				
342	0.0				
343	0.0				
344	0.0				
345	0.0				
346	0.0				
347	0.0				
348	0.0				
349	0.0				
350	0.0				
351	0.0				
352	0.0				
353	0.0				
354	0.0				
355	0.0				
356	0.0				
357	0.0				
358	0.0				
359	0.0				
360	0.0				
361	0.0				
362	0.0				
363	0.0				
364	0.0				
365	0.0				
366	0.0				
367	0.0				
368	0.0				
369	0.0				
370	0.0				
371	0.0				
372	0.0				
373	0.0				
374	0.0				
375	0.0				
376	0.0				
377	0.0				
378	0.0				
379	0.0				
380	0.0				
381	0.0				
382	0.0				
383	0.0				
384	0.0				
385	0.0				
386	0.0				
387	0.0				
388	0.0				
389	0.0				
390	0.0				
391	0.0				
392	0.0				
393	0.0				
394	0.0				
395	0.0				
396	0.0				
397	0.0				
398	0.0				
399	0.0				
400	0.0				
401	0.0				
402	0.0				
403	0.0				
404	0.0				
405	0.0				
406	0.0				
407	0.0				
408	0.0				
409	0.0				
410	0.0				
411	0.0				
412	0.0				
413	0.0				
414	0.0				
415	0.0				
416	0.0				
417	0.0				
418	0.0				
419	0.0				
420	0.017				
421	0.299				
422	35.376				
423	90.608				
424	95.484				
425	96.267				
426	95.637				
427	93.049				
428	91.88				
429	93.765				
430	93.01				
431	96.531				
432	96.414				
433	96.998				
434	92.371				
435	95.175				
436	93.17				
437	92.839				
438	97.464				
439	99.254				
440	97.499				
441	93.747				
442	95.507				
443	98.049				
444	98.797				
445	97.862				
446	94.144				
447	95.813				
448	97.266				
449	95.234				
450	95.187				
451	96.226				
452	95.829				
453	97.348				
454	95.066				
455	92.351				
456	96.828				
457	96.849				
458	93.909				
459	95.345				
460	94.124				
461	94.823				
462	96.641				
463	91.328				
464	89.289				
465	92.272				
466	92.925				
467	95.725				
468	95.578				
469	92.594				
470	95.029				
471	92.082				
472	89.786				
473	93.193				
474	93.082				
475	95.809				
476	95.16				
477	85.573				
478	4.702				
479	2.171				
480	0.037				
481	0.001				
482	0.0				
483	0.0				
484	0.0				
485	0.0				
486	0.0				
487	0.0				
488	0.0				
489	0.0				
490	0.0				
491	0.0				
492	0.0				
493	0.0				
494	0.0				
495	0.0				
496	0.0				
497	0.0				
498	0.0				
499	0.012				
500	0.483				
501	18.543				
502	72.792				
503	87.881				
504	91.354				
505	94.378				
506	93.25				
507	93.485				
508	96.762				
509	97.154				
510	96.979				
511	96.326				
512	93.835				
513	94.438				
514	96.142				
515	95.061				
516	93.103				
517	94.759				
518	95.126				
519	92.878				
520	92.3				
521	95.574				
522	97.871				
523	92.896				
524	88.087				
525	88.518				
526	93.234				
527	95.779				
528	96.483				
529	97.864				
530	98.136				
531	94.114				
532	89.699				
533	90.446				
534	95.324				
535	97.753				
536	96.892				
537	97.124				
538	98.029				
539	94.661				
540	91.076				
541	93.037				
542	97.284				
543	98.595				
544	97.676				
545	98.024				
546	95.21				
547	92.519				
548	82.048				
549	6.759				
550	2.887				
551	0.167				
552	0.008				
553	0.0				
554	0.0				
555	0.0				
556	0.0				
557	0.0				
558	0.0				
559	0.0				
560	0.0				
561	0.0				
562	0.0				
563	0.0				
564	0.0				
565	0.0				
566	0.0				
567	0.0				
568	0.0				
569	0.0				
570	0.0				
571	0.0				
572	0.0				
573	0.0				
574	0.0				
575	0.0				
576	0.0				
577	0.002				
578	0.039				
579	0.799				
580	13.618				
581	67.71				
582	88.194				
583	88.565				
584	86.329				
585	93.055				
586	96.279				
587	92.08				
588	91.144				
589	94.39				
590	96.314				
591	95.115				
592	94.964				
593	97.439				
594	97.037				
595	93.826				
596	92.434				
597	94.704				
598	98.073				
599	98.964				
600	98.05				
601	96.852				
602	95.328				
603	91.689				
604	88.215				
605	87.942				
606	90.393				
607	93.031				
608	93.221				
609	92.015				
610	92.352				
611	95.469				
612	98.134				
613	97.981				
614	96.878				
615	97.177				
616	97.337				
617	95.413				
618	93.896				
619	95.932				
620	97.762				
621	98.478				
622	96.288				
623	87.843				
624	78.751				
625	40.876				
626	3.68				
627	0.338				
628	0.021				
629	0.001				
630	0.0				
631	0.0				
632	0.0				
633	0.0				
634	0.0				
635	0.0				
636	0.0				
637	0.0				
638	0.0				
639	0.0				
640	0.0				
641	0.0				
642	0.0				
643	0.0				
644	0.0				
645	0.0				
646	0.0				
647	0.0				
648	0.0				
649	0.0				
650	0.0				
651	0.0				
652	0.0				
653	0.0				
654	0.0				
655	0.0				
656	0.0				
657	0.0				
658	0.0				
659	0.0				
660	0.0				
661	0.0				
662	0.0				
663	0.0				
664	0.0				
665	0.0				
666	0.0				
667	0.0				
668	0.0				
669	0.002				
670	0.029				
671	0.413				
672	4.466				
673	32.478				
674	59.27				
675	68.477				
676	89.097				
677	95.92				
678	94.246				
679	96.04				
680	98.003				
681	93.882				
682	87.398				
683	85.357				
684	87.438				
685	92.846				
686	97.228				
687	99.218				
688	99.655				
689	99.5				
690	98.285				
691	96.594				
692	94.306				
693	91.908				
694	91.326				
695	92.193				
696	93.523				
697	94.661				
698	94.933				
699	94.462				
700	95.381				
701	94.986				
702	95.539				
703	95.443				
704	94.841				
705	92.672				
706	91.695				
707	90.42				
708	90.799				
709	92.235				
710	94.338				
711	94.091				
712	93.505				
713	93.356				
714	92.2				
715	93.085				
716	93.524				
717	95.828				
718	97.438				
719	98.154				
720	96.866				
721	95.061				
722	94.966				
723	94.325				
724	93.989				
725	95.236				
726	94.7				
727	92.973				
728	91.926				
729	90.546				
730	90.12				
731	91.152				
732	93.491				
733	94.694				
734	97.444				
735	98.909				
736	99.155				
737	98.29				
738	98.162				
739	97.907				
740	98.01				
741	98.319				
742	96.811				
743	95.411				
744	94.297				
745	92.453				
746	91.436				
747	91.906				
748	93.326				
749	95.108				
750	97.352				
751	98.952				
752	99.101				
753	98.703				
754	98.174				
755	97.069				
756	95.318				
757	94.484				
758	93.98				
759	93.53				
760	92.574				
761	90.693				
762	90.603				
763	90.334				
764	89.777				
765	89.901				
766	90.038				
767	91.107				
768	93.357				
769	94.461				
770	97.107				
771	98.581				
772	99.935				
773	98.324				
774	96.819				
775	96.144				
776	95.878				
777	93.823				
778	93.372				
779	90.598				
780	91.112				
781	92.528				
782	94.766				
783	93.36				
784	78.769				
785	43.441				
786	6.794				
787	3.442				
788	0.885				
789	0.207				
790	0.043				
791	0.008				
792	0.002				
793	0.0				
794	0.0				
795	0.0				
796	0.0				
797	0.0				
798	0.0				
799	0.0				
800	0.01				
801	0.007				
802	0.005				
803	0.003				
804	0.002				
805	0.001				
806	0.001				
807	0.0				
808	0.0				
809	0.0				
810	0.0				
811	0.0				
812	0.0				
813	0.0				
814	0.0				
815	0.0				
816	0.0				
817	0.0				
818	0.0				
819	0.0				
820	0.0				
821	0.0				
822	0.0				
823	0.0				
824	0.0				
825	0.0				
826	0.0				
827	0.0				
828	0.0				
829	0.0				
830	0.0				
831	0.0				
832	0.0				
833	0.0				
834	0.0				
835	0.0				
836	0.0				
837	0.0				
838	0.0				
839	0.0				
840	0.0				
841	0.0				
842	0.0				
843	0.0				
844	0.0				
845	0.0				
846	0.0				
847	0.0				
848	0.0				
849	0.0				
850	0.0				
851	0.0				
852	0.0				
853	0.0				
854	0.0				
855	0.0				
856	0.0				
857	0.0				
858	0.0				
859	0.0				
860	0.0				
861	0.0				
862	0.0				
863	0.0				
864	0.0				
865	0.0				
866	0.0				
867	0.0				
868	0.0				
869	0.0				
870	0.0				
871	0.0				
872	0.0				
873	0.0				
874	0.0				
875	0.0				
876	0.0				
877	0.0				
878	0.0				
879	0.0				
880	0.0				
881	0.0				
882	0.0				
883	0.0				
884	0.0				
885	0.0				
886	0.0				
887	0.0				
888	0.0				
889	0.0				
890	0.0				
891	0.0				
892	0.0				
893	0.0				
894	0.0				
895	0.0				
896	0.0				
897	0.0				
898	0.0				
899	0.0				
900	0.0				
901	0.0				
902	0.0				
903	0.0				
904	0.0				
905	0.0				
906	0.0				
907	0.0				
908	0.0				
909	0.0				
910	0.0				
911	0.0				
912	0.0				
913	0.0				
914	0.0				
915	0.0				
916	0.0				
917	0.0				
918	0.0				
919	0.0				
920	0.0				
921	0.0				
922	0.0				
923	0.0				
924	0.0				
925	0.0				
926	0.0				
927	0.0				
928	0.0				
929	0.0				
930	0.0				
931	0.0				
932	0.0				
933	0.0				
934	0.0				
935	0.0				
936	0.001				
937	0.006				
938	0.019				
939	0.036				
940	0.054				
941	0.061				
942	0.051				
943	0.033				
944	0.015				
945	0.004				
946	0.001				
947	0.0				
948	0.0				
949	0.0				
950	0.0				
951	0.0				
952	0.0				
953	0.0				
954	0.0				
955	0.0				
956	0.0				
957	0.0				
958	0.0				
959	0.0				
960	0.001				
961	0.001				
962	0.003				
963	0.011				
964	0.043				
965	0.131				
966	0.27				
967	0.407				
968	0.45				
969	0.375				
970	0.248				
971	0.151				
972	0.113				
973	0.118				
974	0.167				
975	0.299				
976	0.623				
977	1.687				
978	5.237				
979	6.838				
980	4.407				
981	2.141				
982	0.725				
983	0.275				
984	0.149				
985	0.1				
986	0.08				
987	0.074				
988	0.078				
989	0.088				
990	0.104				
991	0.118				
992	0.127				
993	0.124				
994	0.107				
995	0.082				
996	0.059				
997	0.04				
998	0.027				
999	0.019				
1000	0.014				
1001	0.011				
1002	0.01				
1003	0.009				
1004	0.009				
1005	0.009				
1006	0.011				
1007	0.013				
1008	0.018				
1009	0.026				
1010	0.041				
1011	0.073				
1012	0.141				
1013	0.293				
1014	0.625				
1015	1.431				
1016	3.781				
1017	7.569				
1018	6.856				
1019	4.005				
1020	2.176				
1021	1.329				
1022	0.985				
1023	0.877				
1024	0.893				
1025	1.014				
1026	1.298				
1027	1.881				
1028	3.173				
1029	7.061				
1030	23.094				
1031	35.784				
1032	17.792				
1033	7.013				
1034	3.718				
1035	2.576				
1036	2.189				
1037	2.194				
1038	2.64				
1039	3.794				
1040	5.512				
1041	5.228				
1042	3.31				
1043	1.61				
1044	0.623				
1045	0.251				
1046	0.104				
1047	0.046				
1048	0.022				
1049	0.011				
1050	0.006				
1051	0.004				
1052	0.002				
1053	0.002				
1054	0.001				
1055	0.001				
1056	0.001				
1057	0.001				
1058	0.0				
1059	0.0				
1060	0.0				
1061	0.0				
1062	0.0				
1063	0.0				
1064	0.0				
1065	0.0				
1066	0.0				
1067	0.001				
1068	0.001				
1069	0.001				
1070	0.001				
1071	0.002				
1072	0.003				
1073	0.006				
1074	0.013				
1075	0.037				
1076	0.132				
1077	0.515				
1078	1.332				
1079	1.899				
1080	1.468				
1081	0.615				
1082	0.166				
1083	0.058				
1084	0.026				
1085	0.014				
1086	0.009				
1087	0.006				
1088	0.004				
1089	0.004				
1090	0.003				
1091	0.003				
1092	0.003				
1093	0.003				
1094	0.003				
1095	0.003				
1096	0.003				
1097	0.004				
1098	0.004				
1099	0.005				
1100	0.007				
