Wavelength	Transmittance	hex_color	Manufacturer	Name	Filter Number
300	0.0		Chroma		59003m
301	0.0				
302	0.0				
303	0.0				
304	0.0				
305	0.0				
306	0.0				
307	0.0				
308	0.0				
309	0.0				
310	0.0				
311	0.0				
312	0.0				
313	0.0				
314	0.0				
315	0.0				
316	0.0				
317	0.0				
318	0.0				
319	0.0				
320	0.0				
321	0.0				
322	0.0				
323	0.0				
324	0.0				
325	0.0				
326	0.0				
327	0.0				
328	0.0				
329	0.0				
330	0.0				
331	0.0				
332	0.0				
333	0.0				
334	0.0				
335	0.0				
336	0.0				
337	0.0				
338	0.0				
339	0.0				
340	0.0				
341	0.0				
342	0.0				
343	0.0				
344	0.0				
345	0.0				
346	0.0				
347	0.0				
348	0.0				
349	0.0				
350	0.0				
351	0.0				
352	0.0				
353	0.0				
354	0.0				
355	0.0				
356	0.0				
357	0.0				
358	0.0				
359	0.0				
360	0.0				
361	0.0				
362	0.0				
363	0.0				
364	0.0				
365	0.0				
366	0.0				
367	0.0				
368	0.0				
369	0.0				
370	0.0				
371	0.0				
372	0.0				
373	0.0				
374	0.0				
375	0.0				
376	0.0				
377	0.0				
378	0.0				
379	0.0				
380	0.0				
381	0.0				
382	0.0				
383	0.0				
384	0.0				
385	0.0				
386	0.0				
387	0.0				
388	0.0				
389	0.0				
390	0.0				
391	0.0				
392	0.0				
393	0.0				
394	0.0				
395	0.0				
396	0.0				
397	0.0				
398	0.0				
399	0.0				
400	0.0				
401	0.0				
402	0.0				
403	0.0				
404	0.0				
405	0.0				
406	0.0				
407	0.0				
408	0.0				
409	0.0				
410	0.0				
411	0.0				
412	0.0				
413	0.0				
414	0.001				
415	0.0				
416	0.0				
417	0.0				
418	0.0				
419	0.0				
420	0.0				
421	0.0				
422	0.0				
423	0.0				
424	0.0				
425	0.0				
426	0.0				
427	0.0				
428	0.0				
429	0.0				
430	0.0				
431	0.0				
432	0.0				
433	0.0				
434	0.0				
435	0.0				
436	0.0				
437	0.0				
438	0.0				
439	0.0				
440	0.0				
441	0.002				
442	0.044				
443	3.741				
444	60.335				
445	96.361				
446	96.283				
447	96.64				
448	97.842				
449	97.958				
450	97.68				
451	97.871				
452	97.906				
453	97.388				
454	98.133				
455	98.344				
456	98.035				
457	97.321				
458	97.547				
459	98.056				
460	97.549				
461	97.206				
462	97.384				
463	97.89				
464	98.317				
465	97.691				
466	97.823				
467	97.825				
468	96.405				
469	96.42				
470	97.158				
471	97.409				
472	98.046				
473	97.429				
474	97.265				
475	96.155				
476	96.696				
477	93.572				
478	78.387				
479	23.916				
480	0.534				
481	0.015				
482	0.001				
483	0.0				
484	0.0				
485	0.0				
486	0.0				
487	0.0				
488	0.0				
489	0.0				
490	0.0				
491	0.0				
492	0.0				
493	0.0				
494	0.0				
495	0.0				
496	0.0				
497	0.0				
498	0.0				
499	0.0				
500	0.0				
501	0.0				
502	0.0				
503	0.0				
504	0.0				
505	0.0				
506	0.0				
507	0.0				
508	0.0				
509	0.0				
510	0.0				
511	0.0				
512	0.0				
513	0.0				
514	0.0				
515	0.0				
516	0.0				
517	0.0				
518	0.0				
519	0.0				
520	0.0				
521	0.0				
522	0.0				
523	0.0				
524	0.0				
525	0.0				
526	0.0				
527	0.0				
528	0.0				
529	0.0				
530	0.0				
531	0.0				
532	0.0				
533	0.0				
534	0.0				
535	0.0				
536	0.0				
537	0.0				
538	0.0				
539	0.0				
540	0.0				
541	0.0				
542	0.0				
543	0.0				
544	0.0				
545	0.0				
546	0.0				
547	0.0				
548	0.0				
549	0.0				
550	0.0				
551	0.0				
552	0.0				
553	0.0				
554	0.0				
555	0.0				
556	0.0				
557	0.0				
558	0.0				
559	0.0				
560	0.0				
561	0.0				
562	0.0				
563	0.0				
564	0.0				
565	0.0				
566	0.0				
567	0.0				
568	0.0				
569	0.0				
570	0.0				
571	0.0				
572	0.0				
573	0.0				
574	0.0				
575	0.0				
576	0.0				
577	0.0				
578	0.0				
579	0.0				
580	0.0				
581	0.0				
582	0.0				
583	0.0				
584	0.0				
585	0.0				
586	0.0				
587	0.0				
588	0.0				
589	0.0				
590	0.0				
591	0.0				
592	0.0				
593	0.0				
594	0.0				
595	0.0				
596	0.0				
597	0.0				
598	0.001				
599	0.007				
600	0.133				
601	6.443				
602	37.804				
603	69.432				
604	95.533				
605	97.436				
606	98.18				
607	97.707				
608	98.705				
609	98.172				
610	97.134				
611	97.996				
612	99.019				
613	98.978				
614	98.9				
615	98.585				
616	97.183				
617	95.634				
618	95.649				
619	97.072				
620	97.736				
621	96.648				
622	95.11				
623	94.69				
624	95.084				
625	95.368				
626	95.496				
627	96.178				
628	97.835				
629	98.981				
630	98.245				
631	95.978				
632	94.228				
633	94.093				
634	95.183				
635	96.351				
636	97.104				
637	97.765				
638	98.634				
639	99.033				
640	98.617				
641	97.904				
642	97.823				
643	98.233				
644	98.634				
645	98.921				
646	99.083				
647	98.745				
648	97.714				
649	96.84				
650	93.177				
651	82.748				
652	51.394				
653	11.274				
654	1.292				
655	0.19				
656	0.039				
657	0.01				
658	0.003				
659	0.001				
660	0.0				
661	0.0				
662	0.0				
663	0.0				
664	0.0				
665	0.0				
666	0.0				
667	0.0				
668	0.0				
669	0.0				
670	0.0				
671	0.0				
672	0.0				
673	0.0				
674	0.0				
675	0.0				
676	0.0				
677	0.0				
678	0.0				
679	0.0				
680	0.0				
681	0.0				
682	0.0				
683	0.0				
684	0.0				
685	0.0				
686	0.0				
687	0.0				
688	0.0				
689	0.0				
690	0.0				
691	0.0				
692	0.0				
693	0.0				
694	0.0				
695	0.0				
696	0.0				
697	0.0				
698	0.0				
699	0.0				
700	0.0				
701	0.0				
702	0.0				
703	0.0				
704	0.0				
705	0.0				
706	0.0				
707	0.0				
708	0.0				
709	0.0				
710	0.0				
711	0.002				
712	0.006				
713	0.002				
714	0.001				
715	0.0				
716	0.0				
717	0.0				
718	0.0				
719	0.0				
720	0.0				
721	0.0				
722	0.0				
723	0.0				
724	0.001				
725	0.001				
726	0.0				
727	0.0				
728	0.0				
729	0.0				
730	0.0				
731	0.0				
732	0.0				
733	0.0				
734	0.0				
735	0.0				
736	0.0				
737	0.0				
738	0.001				
739	0.001				
740	0.002				
741	0.001				
742	0.001				
743	0.001				
744	0.001				
745	0.0				
746	0.0				
747	0.001				
748	0.001				
749	0.001				
750	0.001				
751	0.001				
752	0.001				
753	0.002				
754	0.001				
755	0.001				
756	0.001				
757	0.001				
758	0.0				
759	0.0				
760	0.0				
761	0.001				
762	0.0				
763	0.001				
764	0.001				
765	0.001				
766	0.002				
767	0.001				
768	0.002				
769	0.003				
770	0.003				
771	0.005				
772	0.006				
773	0.007				
774	0.008				
775	0.009				
776	0.01				
777	0.01				
778	0.011				
779	0.011				
780	0.009				
781	0.01				
782	0.009				
783	0.008				
784	0.009				
785	0.009				
786	0.009				
787	0.009				
788	0.01				
789	0.009				
790	0.01				
791	0.01				
792	0.01				
793	0.011				
794	0.011				
795	0.01				
796	0.011				
797	0.01				
798	0.011				
799	0.01				
800	0.011				
801	0.011				
802	0.011				
803	0.01				
804	0.01				
805	0.01				
806	0.01				
807	0.01				
808	0.01				
809	0.01				
810	0.01				
811	0.01				
812	0.009				
813	0.009				
814	0.009				
815	0.01				
816	0.01				
817	0.01				
818	0.01				
819	0.01				
820	0.01				
821	0.01				
822	0.01				
823	0.01				
824	0.01				
825	0.01				
826	0.01				
827	0.01				
828	0.01				
829	0.011				
830	0.011				
831	0.011				
832	0.011				
833	0.011				
834	0.011				
835	0.011				
836	0.011				
837	0.011				
838	0.011				
839	0.01				
840	0.01				
841	0.01				
842	0.01				
843	0.01				
844	0.01				
845	0.01				
846	0.01				
847	0.01				
848	0.01				
849	0.01				
850	0.01				
851	0.01				
852	0.01				
853	0.01				
854	0.009				
855	0.009				
856	0.009				
857	0.009				
858	0.008				
859	0.008				
860	0.007				
861	0.007				
862	0.006				
863	0.005				
864	0.005				
865	0.004				
866	0.004				
867	0.003				
868	0.003				
869	0.002				
870	0.002				
871	0.002				
872	0.002				
873	0.001				
874	0.001				
875	0.001				
876	0.001				
877	0.001				
878	0.001				
879	0.001				
880	0.001				
881	0.001				
882	0.001				
883	0.001				
884	0.002				
885	0.002				
886	0.002				
887	0.002				
888	0.002				
889	0.002				
890	0.003				
891	0.003				
892	0.003				
893	0.004				
894	0.005				
895	0.006				
896	0.007				
897	0.008				
898	0.011				
899	0.014				
900	0.022				
901	0.065				
902	0.411				
903	0.834				
904	0.053				
905	0.114				
906	0.495				
907	13.24				
908	3.519				
909	0.214				
910	0.08				
911	0.046				
912	0.414				
913	0.043				
914	0.024				
915	0.018				
916	0.014				
917	0.012				
918	0.011				
919	0.01				
920	0.01				
921	0.01				
922	0.011				
923	0.011				
924	0.012				
925	0.013				
926	0.015				
927	0.018				
928	0.021				
929	0.026				
930	0.032				
931	0.041				
932	0.055				
933	0.076				
934	0.109				
935	0.162				
936	0.252				
937	0.403				
938	0.642				
939	0.812				
940	1.541				
941	3.181				
942	6.7				
943	11.475				
944	12.93				
945	11.085				
946	9.427				
947	8.658				
948	8.819				
949	9.747				
950	11.772				
951	15.331				
952	21.376				
953	31.617				
954	47.697				
955	67.853				
956	85.072				
957	91.276				
958	89.597				
959	86.649				
960	84.817				
961	82.741				
962	75.627				
963	61.74				
964	44.976				
965	30.728				
966	21.019				
967	14.6				
968	10.684				
969	8.173				
970	6.433				
971	5.333				
972	4.579				
973	4.048				
974	3.725				
975	3.522				
976	3.42				
977	3.435				
978	3.548				
979	3.751				
980	4.092				
981	4.598				
982	5.295				
983	6.291				
984	7.705				
985	9.745				
986	12.702				
987	16.963				
988	23.941				
989	34.921				
990	49.499				
991	67.306				
992	82.843				
993	88.695				
994	84.112				
995	73.474				
996	61.928				
997	51.021				
998	41.673				
999	33.851				
1000	27.257				
1001	21.922				
1002	17.667				
1003	14.29				
1004	11.731				
1005	9.732				
1006	8.231				
1007	7.092				
1008	6.211				
1009	5.57				
1010	5.091				
1011	4.746				
1012	4.524				
1013	4.408				
1014	4.388				
1015	4.467				
1016	4.662				
1017	4.992				
1018	5.479				
1019	6.19				
1020	7.223				
1021	8.716				
1022	10.991				
1023	14.476				
1024	20.116				
1025	29.511				
1026	44.43				
1027	64.609				
1028	75.794				
1029	65.323				
1030	46.166				
1031	31.769				
1032	22.582				
1033	16.851				
1034	13.347				
1035	11.013				
1036	9.437				
1037	8.386				
1038	7.668				
1039	7.196				
1040	6.938				
1041	6.834				
1042	6.892				
1043	7.096				
1044	7.446				
1045	7.945				
1046	8.617				
1047	9.503				
1048	10.606				
1049	12.038				
1050	13.848				
1051	16.128				
1052	18.955				
1053	22.208				
1054	25.833				
1055	29.697				
1056	33.224				
1057	36.277				
1058	38.682				
1059	40.238				
1060	41.046				
1061	41.289				
1062	41.152				
1063	40.886				
1064	40.769				
1065	41.19				
1066	42.347				
1067	44.008				
1068	45.964				
1069	48.399				
1070	51.981				
1071	56.776				
1072	62.03				
1073	67.48				
1074	73.533				
1075	79.618				
1076	83.767				
1077	84.98				
1078	83.132				
1079	77.423				
1080	68.502				
1081	59.38				
1082	50.415				
1083	41.411				
1084	34.239				
1085	28.753				
1086	23.716				
1087	19.736				
1088	17.074				
1089	14.485				
1090	12.441				
1091	11.164				
1092	9.732				
1093	8.716				
1094	8.114				
1095	7.27				
1096	6.854				
1097	6.553				
1098	6.097				
1099	6.074				
1100	5.898				
