Wavelength	Transmittance	hex_color	Manufacturer	Name	Filter Number
300	0.0		Chroma		ET572/23m
301	0.0				
302	0.0				
303	0.0				
304	0.0				
305	0.0				
306	0.0				
307	0.0				
308	0.0				
309	0.0				
310	0.0				
311	0.0				
312	0.0				
313	0.0				
314	0.0				
315	0.0				
316	0.0				
317	0.0				
318	0.0				
319	0.0				
320	0.0				
321	0.0				
322	0.0				
323	0.0				
324	0.0				
325	0.0				
326	0.0				
327	0.0				
328	0.0				
329	0.0				
330	0.0				
331	0.0				
332	0.0				
333	0.0				
334	0.0				
335	0.0				
336	0.0				
337	0.0				
338	0.0				
339	0.0				
340	0.0				
341	0.0				
342	0.0				
343	0.0				
344	0.0				
345	0.0				
346	0.0				
347	0.0				
348	0.0				
349	0.0				
350	0.0				
351	0.0				
352	0.0				
353	0.0				
354	0.0				
355	0.0				
356	0.0				
357	0.0				
358	0.0				
359	0.0				
360	0.0				
361	0.0				
362	0.0				
363	0.0				
364	0.0				
365	0.0				
366	0.0				
367	0.0				
368	0.0				
369	0.0				
370	0.0				
371	0.0				
372	0.0				
373	0.0				
374	0.0				
375	0.0				
376	0.0				
377	0.0				
378	0.0				
379	0.0				
380	0.0				
381	0.0				
382	0.0				
383	0.0				
384	0.0				
385	0.0				
386	0.0				
387	0.0				
388	0.0				
389	0.0				
390	0.0				
391	0.0				
392	0.0				
393	0.0				
394	0.0				
395	0.0				
396	0.0				
397	0.0				
398	0.0				
399	0.0				
400	0.0				
401	0.0				
402	0.0				
403	0.0				
404	0.0				
405	0.0				
406	0.0				
407	0.0				
408	0.0				
409	0.0				
410	0.0				
411	0.0				
412	0.0				
413	0.0				
414	0.0				
415	0.0				
416	0.0				
417	0.0				
418	0.0				
419	0.0				
420	0.0				
421	0.0				
422	0.0				
423	0.0				
424	0.0				
425	0.0				
426	0.0				
427	0.0				
428	0.0				
429	0.0				
430	0.0				
431	0.0				
432	0.0				
433	0.0				
434	0.0				
435	0.0				
436	0.0				
437	0.0				
438	0.0				
439	0.0				
440	0.0				
441	0.0				
442	0.0				
443	0.0				
444	0.0				
445	0.0				
446	0.0				
447	0.0				
448	0.0				
449	0.0				
450	0.0				
451	0.0				
452	0.0				
453	0.0				
454	0.0				
455	0.0				
456	0.0				
457	0.0				
458	0.0				
459	0.0				
460	0.0				
461	0.0				
462	0.0				
463	0.0				
464	0.0				
465	0.0				
466	0.0				
467	0.0				
468	0.0				
469	0.0				
470	0.0				
471	0.0				
472	0.0				
473	0.0				
474	0.0				
475	0.0				
476	0.0				
477	0.0				
478	0.0				
479	0.0				
480	0.0				
481	0.0				
482	0.0				
483	0.0				
484	0.0				
485	0.0				
486	0.0				
487	0.0				
488	0.0				
489	0.0				
490	0.0				
491	0.0				
492	0.0				
493	0.0				
494	0.0				
495	0.0				
496	0.0				
497	0.0				
498	0.0				
499	0.0				
500	0.0				
501	0.0				
502	0.0				
503	0.0				
504	0.0				
505	0.0				
506	0.0				
507	0.0				
508	0.0				
509	0.0				
510	0.0				
511	0.0				
512	0.0				
513	0.0				
514	0.0				
515	0.0				
516	0.0				
517	0.0				
518	0.0				
519	0.0				
520	0.0				
521	0.0				
522	0.0				
523	0.0				
524	0.0				
525	0.0				
526	0.0				
527	0.0				
528	0.0				
529	0.0				
530	0.0				
531	0.0				
532	0.0				
533	0.0				
534	0.0				
535	0.0				
536	0.0				
537	0.0				
538	0.0				
539	0.0				
540	0.0				
541	0.0				
542	0.0				
543	0.0				
544	0.0				
545	0.0				
546	0.0				
547	0.0				
548	0.0				
549	0.0				
550	0.0				
551	0.0				
552	0.0				
553	0.0				
554	0.0				
555	0.0				
556	0.002				
557	0.01				
558	0.08				
559	1.219				
560	23.228				
561	82.207				
562	94.775				
563	96.096				
564	95.225				
565	96.605				
566	95.692				
567	95.862				
568	97.17				
569	95.641				
570	93.692				
571	95.294				
572	97.192				
573	97.02				
574	96.423				
575	97.048				
576	95.941				
577	92.728				
578	92.35				
579	95.383				
580	96.654				
581	95.957				
582	93.728				
583	77.857				
584	20.655				
585	1.138				
586	0.092				
587	0.012				
588	0.002				
589	0.001				
590	0.0				
591	0.0				
592	0.0				
593	0.0				
594	0.0				
595	0.0				
596	0.0				
597	0.0				
598	0.0				
599	0.0				
600	0.0				
601	0.0				
602	0.0				
603	0.0				
604	0.0				
605	0.0				
606	0.0				
607	0.0				
608	0.0				
609	0.0				
610	0.0				
611	0.0				
612	0.0				
613	0.0				
614	0.0				
615	0.0				
616	0.0				
617	0.0				
618	0.0				
619	0.0				
620	0.0				
621	0.0				
622	0.0				
623	0.0				
624	0.0				
625	0.0				
626	0.0				
627	0.0				
628	0.0				
629	0.0				
630	0.0				
631	0.0				
632	0.0				
633	0.0				
634	0.0				
635	0.0				
636	0.0				
637	0.0				
638	0.0				
639	0.0				
640	0.0				
641	0.0				
642	0.0				
643	0.0				
644	0.0				
645	0.0				
646	0.0				
647	0.0				
648	0.0				
649	0.0				
650	0.0				
651	0.0				
652	0.0				
653	0.0				
654	0.0				
655	0.0				
656	0.0				
657	0.0				
658	0.0				
659	0.0				
660	0.0				
661	0.0				
662	0.0				
663	0.0				
664	0.0				
665	0.0				
666	0.0				
667	0.0				
668	0.0				
669	0.0				
670	0.0				
671	0.0				
672	0.0				
673	0.0				
674	0.0				
675	0.0				
676	0.0				
677	0.0				
678	0.0				
679	0.0				
680	0.0				
681	0.0				
682	0.0				
683	0.0				
684	0.0				
685	0.0				
686	0.0				
687	0.0				
688	0.0				
689	0.0				
690	0.0				
691	0.0				
692	0.0				
693	0.0				
694	0.0				
695	0.0				
696	0.0				
697	0.0				
698	0.0				
699	0.0				
700	0.0				
701	0.0				
702	0.0				
703	0.0				
704	0.0				
705	0.0				
706	0.0				
707	0.0				
708	0.0				
709	0.0				
710	0.0				
711	0.0				
712	0.0				
713	0.0				
714	0.0				
715	0.0				
716	0.0				
717	0.0				
718	0.0				
719	0.0				
720	0.0				
721	0.0				
722	0.0				
723	0.0				
724	0.0				
725	0.0				
726	0.0				
727	0.0				
728	0.0				
729	0.0				
730	0.0				
731	0.0				
732	0.0				
733	0.0				
734	0.0				
735	0.0				
736	0.0				
737	0.0				
738	0.0				
739	0.0				
740	0.0				
741	0.0				
742	0.0				
743	0.0				
744	0.0				
745	0.0				
746	0.0				
747	0.0				
748	0.0				
749	0.0				
750	0.0				
751	0.0				
752	0.0				
753	0.0				
754	0.0				
755	0.0				
756	0.0				
757	0.0				
758	0.0				
759	0.0				
760	0.0				
761	0.0				
762	0.0				
763	0.0				
764	0.0				
765	0.0				
766	0.0				
767	0.0				
768	0.0				
769	0.0				
770	0.0				
771	0.0				
772	0.0				
773	0.0				
774	0.0				
775	0.0				
776	0.0				
777	0.0				
778	0.0				
779	0.0				
780	0.0				
781	0.001				
782	0.001				
783	0.001				
784	0.002				
785	0.003				
786	0.009				
787	0.196				
788	3.388				
789	1.516				
790	0.021				
791	0.008				
792	0.004				
793	0.003				
794	0.003				
795	0.002				
796	0.002				
797	0.002				
798	0.002				
799	0.002				
800	0.003				
801	0.003				
802	0.003				
803	0.004				
804	0.004				
805	0.006				
806	0.008				
807	0.011				
808	0.018				
809	0.033				
810	0.089				
811	0.258				
812	0.522				
813	0.823				
814	1.135				
815	1.461				
816	1.792				
817	2.133				
818	2.502				
819	2.952				
820	3.419				
821	3.668				
822	3.671				
823	3.622				
824	3.577				
825	3.535				
826	3.482				
827	3.416				
828	3.328				
829	3.211				
830	3.062				
831	2.892				
832	2.727				
833	2.541				
834	2.334				
835	2.112				
836	1.883				
837	1.663				
838	1.454				
839	1.262				
840	1.107				
841	0.997				
842	0.949				
843	0.97				
844	1.059				
845	1.224				
846	1.486				
847	1.825				
848	2.169				
849	2.495				
850	2.963				
851	3.612				
852	4.554				
853	5.802				
854	7.653				
855	10.316				
856	14.129				
857	19.682				
858	27.681				
859	39.167				
860	54.957				
861	73.677				
862	89.341				
863	90.948				
864	77.365				
865	57.587				
866	41.404				
867	29.676				
868	21.41				
869	16.045				
870	12.348				
871	9.72				
872	7.94				
873	6.664				
874	5.756				
875	5.113				
876	4.669				
877	4.384				
878	4.22				
879	4.177				
880	4.233				
881	4.4				
882	4.667				
883	5.064				
884	5.638				
885	6.383				
886	7.389				
887	8.733				
888	10.563				
889	13.095				
890	16.495				
891	21.362				
892	27.391				
893	33.8				
894	38.134				
895	38.019				
896	33.838				
897	27.978				
898	22.658				
899	18.38				
900	15.098				
901	12.701				
902	10.919				
903	9.601				
904	8.614				
905	7.895				
906	7.362				
907	6.977				
908	6.717				
909	6.566				
910	6.496				
911	6.514				
912	6.611				
913	6.769				
914	7.017				
915	7.34				
916	7.763				
917	8.273				
918	8.91				
919	9.66				
920	10.584				
921	11.702				
922	13.024				
923	14.651				
924	16.553				
925	18.843				
926	21.585				
927	24.683				
928	28.286				
929	32.395				
930	36.771				
931	41.405				
932	46.1				
933	50.563				
934	54.698				
935	58.304				
936	61.694				
937	64.387				
938	66.838				
939	69.173				
940	71.526				
941	73.887				
942	76.489				
943	79.114				
944	81.998				
945	85.086				
946	88.07				
947	90.883				
948	93.549				
949	95.709				
950	97.126				
951	98.026				
952	98.183				
953	97.784				
954	97.009				
955	95.812				
956	94.49				
957	93.189				
958	92.067				
959	91.176				
960	90.519				
961	90.254				
962	90.396				
963	90.809				
964	91.594				
965	92.627				
966	93.753				
967	94.848				
968	95.868				
969	96.651				
970	97.026				
971	96.877				
972	96.285				
973	95.176				
974	93.716				
975	91.975				
976	89.776				
977	87.567				
978	85.379				
979	83.24				
980	81.412				
981	79.861				
982	78.498				
983	77.321				
984	76.319				
985	75.41				
986	74.572				
987	73.464				
988	72.162				
989	70.487				
990	68.195				
991	65.338				
992	61.837				
993	57.962				
994	53.617				
995	49.175				
996	44.741				
997	40.422				
998	36.499				
999	32.913				
1000	29.574				
