Wavelength	Transmittance	hex_color	Manufacturer	Name	Filter Number
300	0.0		Chroma		ET595/50m
301	0.0				
302	0.0				
303	0.0				
304	0.0				
305	0.0				
306	0.0				
307	0.0				
308	0.0				
309	0.0				
310	0.0				
311	0.0				
312	0.0				
313	0.0				
314	0.0				
315	0.0				
316	0.0				
317	0.0				
318	0.0				
319	0.0				
320	0.0				
321	0.0				
322	0.0				
323	0.0				
324	0.0				
325	0.0				
326	0.0				
327	0.0				
328	0.0				
329	0.0				
330	0.0				
331	0.0				
332	0.0				
333	0.0				
334	0.0				
335	0.0				
336	0.0				
337	0.0				
338	0.0				
339	0.0				
340	0.0				
341	0.0				
342	0.0				
343	0.0				
344	0.0				
345	0.0				
346	0.0				
347	0.0				
348	0.0				
349	0.0				
350	0.0				
351	0.0				
352	0.0				
353	0.0				
354	0.0				
355	0.0				
356	0.0				
357	0.0				
358	0.0				
359	0.0				
360	0.0				
361	0.0				
362	0.0				
363	0.0				
364	0.0				
365	0.0				
366	0.0				
367	0.0				
368	0.0				
369	0.0				
370	0.0				
371	0.0				
372	0.0				
373	0.0				
374	0.0				
375	0.0				
376	0.0				
377	0.0				
378	0.0				
379	0.0				
380	0.0				
381	0.0				
382	0.0				
383	0.0				
384	0.0				
385	0.0				
386	0.0				
387	0.0				
388	0.0				
389	0.0				
390	0.0				
391	0.0				
392	0.0				
393	0.0				
394	0.0				
395	0.0				
396	0.0				
397	0.0				
398	0.0				
399	0.0				
400	0.0				
401	0.0				
402	0.0				
403	0.0				
404	0.0				
405	0.0				
406	0.0				
407	0.0				
408	0.0				
409	0.0				
410	0.0				
411	0.0				
412	0.0				
413	0.0				
414	0.0				
415	0.0				
416	0.0				
417	0.0				
418	0.0				
419	0.0				
420	0.0				
421	0.0				
422	0.0				
423	0.0				
424	0.0				
425	0.0				
426	0.0				
427	0.0				
428	0.0				
429	0.0				
430	0.0				
431	0.0				
432	0.0				
433	0.0				
434	0.0				
435	0.0				
436	0.0				
437	0.0				
438	0.0				
439	0.0				
440	0.0				
441	0.0				
442	0.0				
443	0.0				
444	0.0				
445	0.0				
446	0.0				
447	0.0				
448	0.0				
449	0.0				
450	0.0				
451	0.0				
452	0.0				
453	0.0				
454	0.0				
455	0.0				
456	0.0				
457	0.0				
458	0.0				
459	0.0				
460	0.0				
461	0.0				
462	0.0				
463	0.0				
464	0.0				
465	0.0				
466	0.0				
467	0.0				
468	0.0				
469	0.0				
470	0.0				
471	0.0				
472	0.0				
473	0.0				
474	0.0				
475	0.0				
476	0.0				
477	0.0				
478	0.0				
479	0.0				
480	0.0				
481	0.0				
482	0.0				
483	0.0				
484	0.0				
485	0.0				
486	0.0				
487	0.0				
488	0.0				
489	0.0				
490	0.0				
491	0.0				
492	0.0				
493	0.0				
494	0.0				
495	0.0				
496	0.0				
497	0.0				
498	0.0				
499	0.0				
500	0.0				
501	0.0				
502	0.0				
503	0.0				
504	0.0				
505	0.0				
506	0.0				
507	0.0				
508	0.0				
509	0.0				
510	0.0				
511	0.0				
512	0.0				
513	0.0				
514	0.0				
515	0.0				
516	0.0				
517	0.0				
518	0.0				
519	0.0				
520	0.0				
521	0.0				
522	0.0				
523	0.0				
524	0.0				
525	0.0				
526	0.0				
527	0.0				
528	0.0				
529	0.0				
530	0.0				
531	0.0				
532	0.0				
533	0.0				
534	0.0				
535	0.0				
536	0.0				
537	0.0				
538	0.0				
539	0.0				
540	0.0				
541	0.0				
542	0.0				
543	0.0				
544	0.0				
545	0.0				
546	0.0				
547	0.0				
548	0.0				
549	0.0				
550	0.0				
551	0.0				
552	0.0				
553	0.0				
554	0.0				
555	0.0				
556	0.0				
557	0.0				
558	0.0				
559	0.0				
560	0.0				
561	0.0				
562	0.0				
563	0.0				
564	0.0				
565	0.001				
566	0.003				
567	0.021				
568	0.202				
569	3.193				
570	35.907				
571	89.025				
572	97.909				
573	97.603				
574	98.258				
575	97.974				
576	97.623				
577	97.615				
578	98.075				
579	97.868				
580	98.149				
581	98.335				
582	98.444				
583	98.362				
584	97.707				
585	98.101				
586	98.142				
587	98.398				
588	98.178				
589	97.788				
590	97.545				
591	97.687				
592	97.926				
593	98.197				
594	98.081				
595	97.973				
596	98.051				
597	98.085				
598	97.912				
599	97.979				
600	98.12				
601	98.36				
602	98.37				
603	98.089				
604	97.518				
605	97.5				
606	97.505				
607	97.904				
608	97.639				
609	97.322				
610	96.666				
611	96.564				
612	97.105				
613	97.744				
614	97.08				
615	96.578				
616	95.977				
617	93.896				
618	88.02				
619	88.46				
620	48.469				
621	4.276				
622	1.155				
623	0.149				
624	0.027				
625	0.006				
626	0.002				
627	0.001				
628	0.0				
629	0.0				
630	0.0				
631	0.0				
632	0.0				
633	0.0				
634	0.0				
635	0.0				
636	0.0				
637	0.0				
638	0.0				
639	0.0				
640	0.0				
641	0.0				
642	0.0				
643	0.0				
644	0.0				
645	0.0				
646	0.0				
647	0.0				
648	0.0				
649	0.0				
650	0.0				
651	0.0				
652	0.0				
653	0.0				
654	0.0				
655	0.0				
656	0.0				
657	0.0				
658	0.0				
659	0.0				
660	0.0				
661	0.0				
662	0.0				
663	0.0				
664	0.0				
665	0.0				
666	0.0				
667	0.0				
668	0.0				
669	0.0				
670	0.0				
671	0.0				
672	0.0				
673	0.0				
674	0.0				
675	0.0				
676	0.0				
677	0.0				
678	0.0				
679	0.0				
680	0.0				
681	0.0				
682	0.0				
683	0.0				
684	0.0				
685	0.0				
686	0.0				
687	0.0				
688	0.0				
689	0.0				
690	0.0				
691	0.0				
692	0.0				
693	0.0				
694	0.0				
695	0.0				
696	0.0				
697	0.0				
698	0.0				
699	0.0				
700	0.0				
701	0.0				
702	0.0				
703	0.0				
704	0.0				
705	0.0				
706	0.0				
707	0.0				
708	0.0				
709	0.0				
710	0.0				
711	0.0				
712	0.0				
713	0.0				
714	0.0				
715	0.0				
716	0.0				
717	0.0				
718	0.0				
719	0.0				
720	0.0				
721	0.0				
722	0.0				
723	0.0				
724	0.0				
725	0.0				
726	0.0				
727	0.0				
728	0.0				
729	0.0				
730	0.0				
731	0.0				
732	0.0				
733	0.0				
734	0.0				
735	0.0				
736	0.0				
737	0.0				
738	0.001				
739	0.004				
740	0.008				
741	0.007				
742	0.007				
743	0.007				
744	0.006				
745	0.005				
746	0.005				
747	0.005				
748	0.005				
749	0.005				
750	0.005				
751	0.005				
752	0.004				
753	0.004				
754	0.004				
755	0.004				
756	0.004				
757	0.004				
758	0.004				
759	0.004				
760	0.004				
761	0.004				
762	0.004				
763	0.004				
764	0.004				
765	0.004				
766	0.004				
767	0.004				
768	0.004				
769	0.004				
770	0.004				
771	0.004				
772	0.005				
773	0.004				
774	0.004				
775	0.004				
776	0.004				
777	0.004				
778	0.003				
779	0.004				
780	0.004				
781	0.004				
782	0.004				
783	0.004				
784	0.004				
785	0.004				
786	0.004				
787	0.004				
788	0.003				
789	0.003				
790	0.003				
791	0.003				
792	0.003				
793	0.004				
794	0.004				
795	0.004				
796	0.004				
797	0.004				
798	0.004				
799	0.004				
800	0.005				
801	0.005				
802	0.005				
803	0.005				
804	0.005				
805	0.005				
806	0.005				
807	0.005				
808	0.006				
809	0.006				
810	0.006				
811	0.006				
812	0.006				
813	0.006				
814	0.006				
815	0.006				
816	0.006				
817	0.006				
818	0.006				
819	0.006				
820	0.006				
821	0.007				
822	0.007				
823	0.007				
824	0.007				
825	0.008				
826	0.008				
827	0.008				
828	0.009				
829	0.009				
830	0.009				
831	0.01				
832	0.01				
833	0.011				
834	0.012				
835	0.012				
836	0.013				
837	0.014				
838	0.015				
839	0.017				
840	0.018				
841	0.019				
842	0.021				
843	0.022				
844	0.024				
845	0.026				
846	0.028				
847	0.029				
848	0.031				
849	0.033				
850	0.036				
851	0.038				
852	0.04				
853	0.042				
854	0.044				
855	0.046				
856	0.048				
857	0.051				
858	0.053				
859	0.056				
860	0.059				
861	0.061				
862	0.065				
863	0.068				
864	0.072				
865	0.077				
866	0.082				
867	0.087				
868	0.093				
869	0.1				
870	0.108				
871	0.117				
872	0.128				
873	0.139				
874	0.153				
875	0.168				
876	0.186				
877	0.209				
878	0.235				
879	0.266				
880	0.301				
881	0.346				
882	0.391				
883	0.462				
884	0.521				
885	0.607				
886	0.716				
887	0.825				
888	0.96				
889	1.111				
890	1.275				
891	1.433				
892	1.6				
893	1.72				
894	1.821				
895	1.827				
896	1.844				
897	1.801				
898	1.729				
899	1.643				
900	1.555				
901	1.496				
902	1.421				
903	1.366				
904	1.337				
905	1.302				
906	1.288				
907	1.281				
908	1.3				
909	1.328				
910	1.381				
911	1.449				
912	1.534				
913	1.652				
914	1.781				
915	1.917				
916	2.119				
917	2.359				
918	2.648				
919	3.007				
920	3.428				
921	3.942				
922	4.478				
923	5.154				
924	5.921				
925	6.593				
926	7.442				
927	8.198				
928	8.872				
929	9.49				
930	9.951				
931	10.223				
932	10.559				
933	10.759				
934	10.981				
935	11.3				
936	11.554				
937	11.934				
938	12.174				
939	12.663				
940	13.418				
941	14.182				
942	14.97				
943	15.824				
944	16.997				
945	18.035				
946	19.274				
947	20.766				
948	22.36				
949	23.854				
950	25.547				
951	27.368				
952	29.011				
953	30.678				
954	32.933				
955	35.293				
956	37.758				
957	39.594				
958	41.939				
959	44.663				
960	47.188				
961	49.976				
962	51.621				
963	54.445				
964	55.277				
965	57.565				
966	57.929				
967	58.545				
968	57.713				
969	56.815				
970	55.795				
971	53.412				
972	51.591				
973	49.452				
974	47.594				
975	44.983				
976	43.451				
977	40.652				
978	39.377				
979	37.514				
980	35.816				
981	34.281				
982	32.531				
983	31.582				
984	30.32				
985	29.233				
986	28.283				
987	27.469				
988	26.485				
989	26.109				
990	25.484				
991	24.81				
992	24.719				
993	24.237				
994	24.199				
995	24.172				
996	24.211				
997	24.525				
998	24.713				
999	25.106				
1000	25.951				
1001	26.732				
1002	27.495				
1003	28.546				
1004	29.477				
1005	30.589				
1006	31.582				
1007	32.93				
1008	34.128				
1009	34.979				
1010	35.403				
1011	35.877				
1012	37.503				
1013	37.395				
1014	37.54				
1015	37.197				
1016	37.156				
1017	37.748				
1018	38.201				
1019	37.979				
1020	37.389				
1021	37.347				
1022	37.346				
1023	37.758				
1024	38.736				
1025	40.257				
1026	41.859				
1027	43.978				
1028	45.511				
1029	48.052				
1030	49.717				
1031	51.989				
1032	54.863				
1033	57.388				
1034	61.25				
1035	64.9				
1036	67.521				
1037	70.774				
1038	73.572				
1039	76.208				
1040	78.095				
1041	77.574				
1042	76.882				
1043	75.292				
1044	73.105				
1045	72.027				
1046	69.949				
1047	68.106				
1048	66.309				
1049	64.505				
1050	63.454				
1051	62.856				
1052	62.917				
1053	63.383				
1054	61.84				
1055	62.463				
1056	62.059				
1057	62.601				
1058	62.974				
1059	64.503				
1060	64.957				
1061	67.579				
1062	68.818				
1063	68.033				
1064	66.388				
1065	64.839				
1066	63.606				
1067	63.463				
1068	61.496				
1069	58.386				
1070	56.362				
1071	55.189				
1072	53.515				
1073	51.603				
1074	47.943				
1075	45.792				
1076	45.345				
1077	45.85				
1078	44.809				
1079	42.305				
1080	40.881				
1081	42.9				
1082	43.551				
1083	41.846				
1084	40.902				
1085	43.712				
1086	44.425				
1087	43.247				
1088	44.534				
1089	47.29				
1090	47.481				
1091	46.458				
1092	49.767				
1093	50.344				
1094	48.322				
1095	50.492				
1096	50.776				
1097	49.115				
1098	49.954				
1099	49.402				
1100	46.831				
