Wavelength	Transmittance	hex_color	Manufacturer	Name	Filter Number
301	0.0		Chroma		ZET405/488/561/640m-TRFv2
302	0.0				
303	0.0				
304	0.0				
305	0.0				
306	0.0				
307	0.0				
308	0.0				
309	0.0				
310	0.0				
311	0.0				
312	0.0				
313	0.0				
314	0.0				
315	0.0				
316	0.0				
317	0.0				
318	0.0				
319	0.0				
320	0.0				
321	0.0				
322	0.0				
323	0.0				
324	0.0				
325	0.0				
326	0.0				
327	0.0				
328	0.0				
329	0.0				
330	0.0				
331	0.0				
332	0.0				
333	0.0				
334	0.0				
335	0.0				
336	0.0				
337	0.0				
338	0.0				
339	0.0				
340	0.0				
341	0.0				
342	0.0				
343	0.0				
344	0.0				
345	0.0				
346	0.0				
347	0.0				
348	0.0				
349	0.0				
350	0.0				
351	0.0				
352	0.0				
353	0.0				
354	0.0				
355	0.0				
356	0.0				
357	0.0				
358	0.0				
359	0.0				
360	0.0				
361	0.0				
362	0.0				
363	0.0				
364	0.0				
365	0.0				
366	0.0				
367	0.0				
368	0.0				
369	0.0				
370	0.0				
371	0.0				
372	0.0				
373	0.0				
374	0.0				
375	0.0				
376	0.0				
377	0.0				
378	0.0				
379	0.0				
380	0.0				
381	0.0				
382	0.0				
383	0.0				
384	0.0				
385	0.0				
386	0.0				
387	0.0				
388	0.0				
389	0.0				
390	0.0				
391	0.0				
392	0.0				
393	0.0				
394	0.0				
395	0.0				
396	0.0				
397	0.0				
398	0.0				
399	0.0				
400	0.0				
401	0.0				
402	0.0				
403	0.0				
404	0.0				
405	0.0				
406	0.0				
407	0.0				
408	0.0				
409	0.0				
410	0.0				
411	0.0				
412	0.0				
413	0.003				
414	0.65				
415	32.227				
416	90.292				
417	93.271				
418	93.389				
419	91.671				
420	89.897				
421	94.788				
422	94.235				
423	93.634				
424	94.093				
425	94.575				
426	93.244				
427	94.728				
428	94.546				
429	93.51				
430	96.242				
431	96.88				
432	97.072				
433	96.552				
434	94.702				
435	92.521				
436	93.811				
437	95.846				
438	96.312				
439	95.948				
440	94.552				
441	94.351				
442	95.798				
443	92.463				
444	88.377				
445	91.393				
446	96.257				
447	97.53				
448	95.893				
449	91.349				
450	90.631				
451	94.713				
452	95.371				
453	95.114				
454	95.055				
455	93.654				
456	95.461				
457	97.243				
458	96.113				
459	95.754				
460	95.638				
461	94.225				
462	92.08				
463	91.77				
464	92.927				
465	94.69				
466	96.909				
467	96.833				
468	95.862				
469	94.532				
470	89.414				
471	83.699				
472	71.984				
473	14.746				
474	0.359				
475	0.011				
476	0.001				
477	0.0				
478	0.0				
479	0.0				
480	0.0				
481	0.0				
482	0.0				
483	0.0				
484	0.0				
485	0.0				
486	0.0				
487	0.0				
488	0.0				
489	0.0				
490	0.0				
491	0.0				
492	0.0				
493	0.0				
494	0.0				
495	0.0				
496	0.001				
497	0.007				
498	0.111				
499	5.448				
500	58.556				
501	95.14				
502	95.9				
503	96.126				
504	95.186				
505	94.703				
506	94.939				
507	95.773				
508	97.119				
509	97.281				
510	95.868				
511	95.366				
512	95.69				
513	94.343				
514	91.841				
515	91.553				
516	93.337				
517	94.275				
518	94.671				
519	96.198				
520	97.792				
521	97.522				
522	95.457				
523	93.202				
524	92.3				
525	91.995				
526	91.167				
527	92.45				
528	95.845				
529	94.438				
530	88.338				
531	86.583				
532	91.145				
533	95.73				
534	96.838				
535	95.645				
536	94.106				
537	95.316				
538	96.211				
539	92.213				
540	88.929				
541	89.339				
542	90.494				
543	93.181				
544	95.915				
545	94.728				
546	67.323				
547	10.752				
548	0.479				
549	0.037				
550	0.005				
551	0.001				
552	0.0				
553	0.0				
554	0.0				
555	0.0				
556	0.0				
557	0.0				
558	0.0				
559	0.0				
560	0.0				
561	0.0				
562	0.0				
563	0.0				
564	0.0				
565	0.0				
566	0.0				
567	0.0				
568	0.001				
569	0.004				
570	0.025				
571	0.22				
572	4.156				
573	44.994				
574	94.851				
575	97.441				
576	97.132				
577	98.164				
578	97.77				
579	97.662				
580	97.941				
581	97.861				
582	97.9				
583	98.018				
584	97.846				
585	98.124				
586	98.33				
587	97.309				
588	95.792				
589	94.484				
590	93.87				
591	94.222				
592	95.941				
593	97.47				
594	97.441				
595	96.295				
596	96.123				
597	96.989				
598	97.14				
599	96.009				
600	95.251				
601	96.059				
602	97.057				
603	96.73				
604	95.57				
605	95.477				
606	96.575				
607	97.2				
608	97.041				
609	97.049				
610	96.565				
611	95.066				
612	94.542				
613	95.296				
614	90.236				
615	43.178				
616	7.054				
617	0.851				
618	0.141				
619	0.031				
620	0.009				
621	0.003				
622	0.001				
623	0.001				
624	0.0				
625	0.0				
626	0.0				
627	0.0				
628	0.0				
629	0.0				
630	0.0				
631	0.0				
632	0.0				
633	0.0				
634	0.0				
635	0.0				
636	0.0				
637	0.0				
638	0.0				
639	0.0				
640	0.0				
641	0.0				
642	0.0				
643	0.0				
644	0.0				
645	0.0				
646	0.0				
647	0.0				
648	0.001				
649	0.001				
650	0.003				
651	0.008				
652	0.022				
653	0.072				
654	0.29				
655	1.512				
656	9.916				
657	47.589				
658	92.439				
659	96.583				
660	96.858				
661	96.355				
662	96.032				
663	96.635				
664	97.402				
665	97.703				
666	97.606				
667	97.464				
668	97.749				
669	98.358				
670	98.926				
671	98.776				
672	98.067				
673	97.212				
674	97.052				
675	97.363				
676	97.864				
677	97.979				
678	97.82				
679	97.564				
680	97.439				
681	97.519				
682	97.631				
683	97.725				
684	97.974				
685	98.493				
686	98.907				
687	99.066				
688	98.66				
689	97.855				
690	97.703				
691	97.823				
692	98.493				
693	99.002				
694	98.839				
695	98.168				
696	97.345				
697	96.985				
698	96.992				
699	97.366				
700	97.712				
701	98.047				
702	98.222				
703	98.44				
704	98.507				
705	98.599				
706	98.675				
707	98.724				
708	98.754				
709	98.665				
710	98.56				
711	98.199				
712	97.878				
713	97.78				
714	98.048				
715	98.562				
716	98.875				
717	98.885				
718	98.817				
719	98.775				
720	98.821				
721	98.973				
722	98.847				
723	98.599				
724	98.478				
725	98.357				
726	98.239				
727	98.374				
728	98.572				
729	98.406				
730	98.259				
731	97.873				
732	97.738				
733	97.31				
734	97.096				
735	97.02				
736	97.038				
737	97.163				
738	97.439				
739	97.483				
740	97.717				
741	97.667				
742	97.734				
743	97.84				
744	98.053				
745	98.268				
746	97.568				
747	96.797				
748	96.128				
749	93.036				
750	70.702				
751	30.049				
752	7.538				
753	1.57				
754	0.368				
755	0.096				
756	0.029				
757	0.01				
758	0.004				
759	0.002				
760	0.001				
761	0.0				
762	0.0				
763	0.0				
764	0.0				
765	0.0				
766	0.0				
767	0.0				
768	0.0				
769	0.0				
770	0.0				
771	0.0				
772	0.0				
773	0.0				
774	0.0				
775	0.0				
776	0.0				
777	0.0				
778	0.0				
779	0.0				
780	0.0				
781	0.0				
782	0.0				
783	0.001				
784	0.049				
785	0.018				
786	0.0				
787	0.0				
788	0.0				
789	0.0				
790	0.0				
791	0.0				
792	0.0				
793	0.0				
794	0.0				
795	0.0				
796	0.0				
797	0.0				
798	0.0				
799	0.0				
800	0.0				
801	0.0				
802	0.0				
803	0.0				
804	0.0				
805	0.0				
806	0.0				
807	0.0				
808	0.001				
809	0.001				
810	0.001				
811	0.001				
812	0.002				
813	0.002				
814	0.003				
815	0.003				
816	0.003				
817	0.003				
818	0.003				
819	0.003				
820	0.003				
821	0.003				
822	0.003				
823	0.003				
824	0.002				
825	0.002				
826	0.002				
827	0.001				
828	0.001				
829	0.001				
830	0.001				
831	0.0				
832	0.0				
833	0.0				
834	0.0				
835	0.0				
836	0.0				
837	0.0				
838	0.0				
839	0.0				
840	0.0				
841	0.0				
842	0.001				
843	0.002				
844	0.003				
845	0.005				
846	0.006				
847	0.008				
848	0.01				
849	0.012				
850	0.013				
851	0.015				
852	0.016				
853	0.017				
854	0.018				
855	0.018				
856	0.017				
857	0.017				
858	0.017				
859	0.017				
860	0.016				
861	0.016				
862	0.015				
863	0.014				
864	0.013				
865	0.012				
866	0.01				
867	0.009				
868	0.008				
869	0.007				
870	0.005				
871	0.004				
872	0.004				
873	0.003				
874	0.003				
875	0.002				
876	0.002				
877	0.002				
878	0.002				
879	0.002				
880	0.001				
881	0.001				
882	0.001				
883	0.001				
884	0.0				
885	0.0				
886	0.0				
887	0.0				
888	0.0				
889	0.0				
890	0.0				
891	0.0				
892	0.0				
893	0.0				
894	0.0				
895	0.0				
896	0.0				
897	0.0				
898	0.0				
899	0.0				
900	0.0				
901	0.0				
902	0.0				
903	0.0				
904	0.0				
905	0.0				
906	0.0				
907	0.0				
908	0.0				
909	0.0				
910	0.0				
911	0.0				
912	0.0				
913	0.0				
914	0.0				
915	0.0				
916	0.0				
917	0.0				
918	0.0				
919	0.0				
920	0.0				
921	0.0				
922	0.0				
923	0.0				
924	0.0				
925	0.0				
926	0.0				
927	0.0				
928	0.0				
929	0.0				
930	0.0				
931	0.0				
932	0.0				
933	0.0				
934	0.0				
935	0.0				
936	0.0				
937	0.0				
938	0.0				
939	0.0				
940	0.0				
941	0.0				
942	0.0				
943	0.0				
944	0.0				
945	0.0				
946	0.0				
947	0.0				
948	0.0				
949	0.0				
950	0.0				
951	0.0				
952	0.0				
953	0.0				
954	0.0				
955	0.0				
956	0.0				
957	0.0				
958	0.0				
959	0.0				
960	0.0				
961	0.0				
962	0.0				
963	0.0				
964	0.0				
965	0.0				
966	0.0				
967	0.0				
968	0.0				
969	0.0				
970	0.0				
971	0.0				
972	0.0				
973	0.0				
974	0.0				
975	0.0				
976	0.0				
977	0.0				
978	0.0				
979	0.001				
980	0.001				
981	0.003				
982	0.005				
983	0.007				
984	0.009				
985	0.011				
986	0.011				
987	0.01				
988	0.009				
989	0.007				
990	0.005				
991	0.005				
992	0.004				
993	0.005				
994	0.005				
995	0.005				
996	0.005				
997	0.005				
998	0.005				
999	0.006				
1000	0.006				
1001	0.008				
1002	0.009				
1003	0.011				
1004	0.012				
1005	0.013				
1006	0.013				
1007	0.013				
1008	0.011				
1009	0.01				
1010	0.009				
1011	0.008				
1012	0.009				
1013	0.01				
1014	0.013				
1015	0.017				
1016	0.022				
1017	0.027				
1018	0.031				
1019	0.035				
1020	0.037				
1021	0.041				
1022	0.045				
1023	0.053				
1024	0.065				
1025	0.084				
1026	0.11				
1027	0.143				
1028	0.184				
1029	0.231				
1030	0.281				
1031	0.337				
1032	0.405				
1033	0.478				
1034	0.511				
1035	0.657				
1036	0.926				
1037	1.514				
1038	3.276				
1039	10.804				
1040	25.427				
1041	8.003				
1042	2.592				
1043	1.24				
1044	0.733				
1045	0.507				
1046	0.389				
1047	0.396				
1048	0.338				
1049	0.315				
1050	0.311				
1051	0.319				
1052	0.331				
1053	0.344				
1054	0.354				
1055	0.362				
1056	0.368				
1057	0.38				
1058	0.405				
1059	0.456				
1060	0.453				
1061	0.559				
1062	0.774				
1063	1.177				
1064	2.063				
1065	3.587				
1066	3.466				
1067	1.707				
1068	0.8				
1069	0.427				
1070	0.446				
1071	0.256				
1072	0.165				
1073	0.117				
1074	0.092				
1075	0.076				
1076	0.067				
1077	0.062				
1078	0.06				
1079	0.06				
1080	0.064				
1081	0.072				
1082	0.085				
1083	0.109				
1084	0.155				
1085	0.251				
1086	0.436				
1087	0.447				
1088	1.059				
1089	3.52				
1090	5.164				
1091	1.714				
1092	0.66				
1093	0.355				
1094	0.403				
1095	0.225				
1096	0.16				
1097	0.127				
1098	0.109				
1099	0.099				
1100	0.095				
