Wavelength	Transmittance	hex_color	Manufacturer	Name	Filter Number
300	0.0		Chroma		ET540/30m
301	0.0				
302	0.0				
303	0.0				
304	0.0				
305	0.0				
306	0.0				
307	0.0				
308	0.0				
309	0.0				
310	0.0				
311	0.0				
312	0.0				
313	0.0				
314	0.0				
315	0.0				
316	0.0				
317	0.0				
318	0.0				
319	0.0				
320	0.0				
321	0.0				
322	0.0				
323	0.0				
324	0.0				
325	0.0				
326	0.0				
327	0.0				
328	0.0				
329	0.0				
330	0.0				
331	0.0				
332	0.0				
333	0.0				
334	0.0				
335	0.0				
336	0.0				
337	0.0				
338	0.0				
339	0.0				
340	0.0				
341	0.0				
342	0.0				
343	0.0				
344	0.0				
345	0.0				
346	0.0				
347	0.0				
348	0.0				
349	0.0				
350	0.0				
351	0.0				
352	0.0				
353	0.0				
354	0.0				
355	0.0				
356	0.0				
357	0.0				
358	0.0				
359	0.0				
360	0.0				
361	0.0				
362	0.0				
363	0.0				
364	0.0				
365	0.0				
366	0.0				
367	0.0				
368	0.0				
369	0.0				
370	0.0				
371	0.0				
372	0.0				
373	0.0				
374	0.0				
375	0.0				
376	0.0				
377	0.0				
378	0.0				
379	0.0				
380	0.0				
381	0.0				
382	0.0				
383	0.0				
384	0.0				
385	0.0				
386	0.0				
387	0.0				
388	0.0				
389	0.0				
390	0.0				
391	0.0				
392	0.0				
393	0.0				
394	0.0				
395	0.0				
396	0.0				
397	0.0				
398	0.0				
399	0.0				
400	0.0				
401	0.0				
402	0.0				
403	0.0				
404	0.0				
405	0.0				
406	0.0				
407	0.0				
408	0.0				
409	0.0				
410	0.0				
411	0.0				
412	0.0				
413	0.0				
414	0.0				
415	0.0				
416	0.0				
417	0.0				
418	0.0				
419	0.0				
420	0.0				
421	0.0				
422	0.0				
423	0.0				
424	0.0				
425	0.0				
426	0.0				
427	0.0				
428	0.0				
429	0.0				
430	0.0				
431	0.0				
432	0.0				
433	0.0				
434	0.0				
435	0.0				
436	0.0				
437	0.0				
438	0.0				
439	0.0				
440	0.0				
441	0.0				
442	0.0				
443	0.0				
444	0.0				
445	0.0				
446	0.0				
447	0.0				
448	0.0				
449	0.0				
450	0.0				
451	0.0				
452	0.0				
453	0.0				
454	0.0				
455	0.0				
456	0.0				
457	0.0				
458	0.0				
459	0.0				
460	0.0				
461	0.0				
462	0.0				
463	0.0				
464	0.0				
465	0.0				
466	0.0				
467	0.0				
468	0.0				
469	0.0				
470	0.0				
471	0.0				
472	0.0				
473	0.0				
474	0.0				
475	0.0				
476	0.0				
477	0.0				
478	0.0				
479	0.0				
480	0.0				
481	0.0				
482	0.0				
483	0.0				
484	0.0				
485	0.0				
486	0.0				
487	0.0				
488	0.0				
489	0.0				
490	0.0				
491	0.0				
492	0.0				
493	0.0				
494	0.0				
495	0.0				
496	0.0				
497	0.0				
498	0.0				
499	0.0				
500	0.0				
501	0.0				
502	0.0				
503	0.0				
504	0.0				
505	0.0				
506	0.0				
507	0.0				
508	0.0				
509	0.0				
510	0.0				
511	0.0				
512	0.0				
513	0.0				
514	0.0				
515	0.0				
516	0.0				
517	0.0				
518	0.0				
519	0.0				
520	0.0				
521	0.001				
522	0.01				
523	0.163				
524	8.049				
525	67.195				
526	94.3				
527	97.956				
528	97.929				
529	98.574				
530	99.27				
531	99.044				
532	98.473				
533	98.523				
534	98.992				
535	99.154				
536	99.204				
537	99.068				
538	98.891				
539	99.182				
540	99.025				
541	98.479				
542	97.583				
543	97.864				
544	98.605				
545	98.532				
546	97.498				
547	97.611				
548	98.37				
549	97.707				
550	96.888				
551	97.546				
552	96.717				
553	93.304				
554	46.768				
555	3.882				
556	0.689				
557	0.067				
558	0.008				
559	0.001				
560	0.0				
561	0.0				
562	0.0				
563	0.0				
564	0.0				
565	0.0				
566	0.0				
567	0.0				
568	0.0				
569	0.0				
570	0.0				
571	0.0				
572	0.0				
573	0.0				
574	0.0				
575	0.0				
576	0.0				
577	0.0				
578	0.0				
579	0.0				
580	0.0				
581	0.0				
582	0.0				
583	0.0				
584	0.0				
585	0.0				
586	0.0				
587	0.0				
588	0.0				
589	0.0				
590	0.0				
591	0.0				
592	0.0				
593	0.0				
594	0.0				
595	0.0				
596	0.0				
597	0.0				
598	0.0				
599	0.0				
600	0.0				
601	0.0				
602	0.0				
603	0.0				
604	0.0				
605	0.0				
606	0.0				
607	0.0				
608	0.0				
609	0.0				
610	0.0				
611	0.0				
612	0.0				
613	0.0				
614	0.0				
615	0.0				
616	0.0				
617	0.0				
618	0.0				
619	0.0				
620	0.0				
621	0.0				
622	0.0				
623	0.0				
624	0.0				
625	0.0				
626	0.0				
627	0.0				
628	0.0				
629	0.0				
630	0.0				
631	0.0				
632	0.0				
633	0.0				
634	0.0				
635	0.0				
636	0.0				
637	0.0				
638	0.0				
639	0.0				
640	0.0				
641	0.0				
642	0.0				
643	0.0				
644	0.0				
645	0.002				
646	0.008				
647	0.006				
648	0.006				
649	0.006				
650	0.005				
651	0.004				
652	0.004				
653	0.003				
654	0.003				
655	0.002				
656	0.002				
657	0.002				
658	0.002				
659	0.002				
660	0.002				
661	0.001				
662	0.001				
663	0.001				
664	0.001				
665	0.001				
666	0.001				
667	0.001				
668	0.001				
669	0.001				
670	0.001				
671	0.001				
672	0.001				
673	0.001				
674	0.001				
675	0.001				
676	0.001				
677	0.001				
678	0.001				
679	0.001				
680	0.0				
681	0.0				
682	0.0				
683	0.0				
684	0.0				
685	0.0				
686	0.0				
687	0.0				
688	0.0				
689	0.0				
690	0.0				
691	0.0				
692	0.0				
693	0.0				
694	0.0				
695	0.0				
696	0.0				
697	0.0				
698	0.0				
699	0.0				
700	0.0				
701	0.0				
702	0.0				
703	0.0				
704	0.0				
705	0.0				
706	0.0				
707	0.0				
708	0.0				
709	0.0				
710	0.0				
711	0.0				
712	0.0				
713	0.0				
714	0.0				
715	0.0				
716	0.0				
717	0.0				
718	0.0				
719	0.0				
720	0.0				
721	0.0				
722	0.0				
723	0.0				
724	0.0				
725	0.0				
726	0.0				
727	0.0				
728	0.0				
729	0.0				
730	0.0				
731	0.0				
732	0.0				
733	0.0				
734	0.0				
735	0.0				
736	0.0				
737	0.0				
738	0.0				
739	0.0				
740	0.0				
741	0.0				
742	0.0				
743	0.001				
744	0.0				
745	0.0				
746	0.0				
747	0.001				
748	0.001				
749	0.001				
750	0.0				
751	0.001				
752	0.001				
753	0.001				
754	0.001				
755	0.001				
756	0.001				
757	0.001				
758	0.001				
759	0.001				
760	0.001				
761	0.001				
762	0.001				
763	0.001				
764	0.001				
765	0.001				
766	0.001				
767	0.001				
768	0.001				
769	0.002				
770	0.001				
771	0.002				
772	0.002				
773	0.002				
774	0.002				
775	0.002				
776	0.003				
777	0.003				
778	0.003				
779	0.004				
780	0.004				
781	0.005				
782	0.006				
783	0.007				
784	0.008				
785	0.01				
786	0.012				
787	0.013				
788	0.014				
789	0.016				
790	0.018				
791	0.02				
792	0.021				
793	0.024				
794	0.027				
795	0.029				
796	0.033				
797	0.037				
798	0.042				
799	0.048				
800	0.078				
801	0.091				
802	0.105				
803	0.122				
804	0.142				
805	0.166				
806	0.195				
807	0.229				
808	0.273				
809	0.327				
810	0.397				
811	0.492				
812	0.624				
813	0.822				
814	1.153				
815	1.763				
816	2.777				
817	4.08				
818	5.518				
819	6.979				
820	8.407				
821	9.889				
822	11.498				
823	13.253				
824	14.788				
825	15.38				
826	14.748				
827	13.293				
828	11.655				
829	10.236				
830	9.067				
831	8.0				
832	7.084				
833	6.372				
834	5.871				
835	5.62				
836	5.605				
837	5.753				
838	5.939				
839	6.092				
840	6.154				
841	6.076				
842	5.836				
843	5.438				
844	4.926				
845	4.359				
846	3.772				
847	3.194				
848	2.655				
849	2.172				
850	1.759				
851	1.443				
852	1.214				
853	1.066				
854	0.994				
855	0.979				
856	1.019				
857	1.121				
858	1.313				
859	1.652				
860	2.251				
861	3.224				
862	4.318				
863	5.144				
864	5.908				
865	6.965				
866	8.549				
867	10.882				
868	14.201				
869	18.238				
870	20.994				
871	20.966				
872	18.485				
873	15.323				
874	12.44				
875	10.122				
876	8.397				
877	7.124				
878	6.235				
879	5.671				
880	5.486				
881	5.57				
882	5.977				
883	6.566				
884	7.507				
885	8.868				
886	10.634				
887	12.947				
888	15.498				
889	17.583				
890	18.217				
891	17.11				
892	14.838				
893	12.282				
894	9.951				
895	8.005				
896	6.529				
897	5.406				
898	4.517				
899	3.862				
900	3.35				
901	2.939				
902	2.613				
903	2.35				
904	2.139				
905	1.967				
906	1.829				
907	1.717				
908	1.62				
909	1.54				
910	1.472				
911	1.409				
912	1.357				
913	1.309				
914	1.265				
915	1.227				
916	1.195				
917	1.168				
918	1.148				
919	1.135				
920	1.129				
921	1.133				
922	1.144				
923	1.166				
924	1.203				
925	1.252				
926	1.32				
927	1.411				
928	1.522				
929	1.663				
930	1.832				
931	1.983				
932	2.212				
933	2.528				
934	2.92				
935	3.447				
936	4.144				
937	5.094				
938	6.374				
939	8.177				
940	10.805				
941	14.541				
942	20.058				
943	27.58				
944	35.237				
945	39.576				
946	37.998				
947	32.492				
948	26.286				
949	21.011				
950	16.995				
951	14.063				
952	11.916				
953	10.296				
954	9.101				
955	8.179				
956	7.439				
957	6.872				
958	6.421				
959	6.046				
960	5.752				
961	5.521				
962	5.33				
963	5.18				
964	5.063				
965	4.976				
966	4.91				
967	4.868				
968	4.838				
969	4.818				
970	4.796				
971	4.759				
972	4.702				
973	4.613				
974	4.484				
975	4.308				
976	4.085				
977	3.822				
978	3.528				
979	3.22				
980	2.913				
981	2.618				
982	2.341				
983	2.094				
984	1.866				
985	1.657				
986	1.481				
987	1.329				
988	1.195				
989	1.085				
990	0.992				
991	0.912				
992	0.847				
993	0.793				
994	0.749				
995	0.713				
996	0.686				
997	0.665				
998	0.65				
999	0.642				
1000	0.64				
1001	0.643				
1002	0.652				
1003	0.667				
1004	0.689				
1005	0.716				
1006	0.751				
1007	0.793				
1008	0.842				
1009	0.9				
1010	0.965				
1011	1.037				
1012	1.112				
1013	1.19				
1014	1.267				
1015	1.336				
1016	1.395				
1017	1.438				
1018	1.459				
1019	1.458				
1020	1.435				
1021	1.394				
1022	1.337				
1023	1.27				
1024	1.198				
1025	1.126				
1026	1.058				
1027	0.993				
1028	0.937				
1029	0.888				
1030	0.845				
1031	0.811				
1032	0.784				
1033	0.763				
1034	0.75				
1035	0.743				
1036	0.743				
1037	0.749				
1038	0.762				
1039	0.782				
1040	0.81				
1041	0.847				
1042	0.895				
1043	0.956				
1044	1.028				
1045	1.119				
1046	1.234				
1047	1.372				
1048	1.546				
1049	1.761				
1050	2.009				
1051	2.329				
1052	2.733				
1053	3.248				
1054	3.92				
1055	4.802				
1056	6.051				
1057	7.736				
1058	10.16				
1059	13.76				
1060	18.741				
1061	25.786				
1062	34.89				
1063	43.809				
1064	49.369				
1065	49.157				
1066	44.452				
1067	38.243				
1068	32.558				
1069	27.952				
1070	24.514				
1071	21.998				
1072	20.169				
1073	18.959				
1074	18.182				
1075	17.749				
1076	17.667				
1077	17.899				
1078	18.399				
1079	19.196				
1080	20.316				
1081	21.77				
1082	23.619				
1083	25.79				
1084	28.457				
1085	31.615				
1086	35.074				
1087	39.025				
1088	43.302				
1089	47.454				
1090	51.41				
1091	54.893				
1092	57.427				
1093	59.171				
1094	60.026				
1095	60.012				
1096	59.509				
1097	58.675				
1098	57.766				
1099	56.87				
1100	56.125				
