Wavelength	Transmittance	hex_color	Manufacturer	Name	Filter Number
301	0.0		Chroma		ZET405/488/561/640mv2
302	0.0				
303	0.0				
304	0.0				
305	0.0				
306	0.0				
307	0.0				
308	0.0				
309	0.0				
310	0.0				
311	0.0				
312	0.0				
313	0.0				
314	0.0				
315	0.0				
316	0.0				
317	0.0				
318	0.0				
319	0.0				
320	0.0				
321	0.0				
322	0.0				
323	0.0				
324	0.0				
325	0.0				
326	0.0				
327	0.0				
328	0.0				
329	0.0				
330	0.0				
331	0.0				
332	0.0				
333	0.0				
334	0.0				
335	0.0				
336	0.0				
337	0.0				
338	0.0				
339	0.0				
340	0.0				
341	0.0				
342	0.0				
343	0.0				
344	0.0				
345	0.0				
346	0.0				
347	0.0				
348	0.0				
349	0.0				
350	0.0				
351	0.0				
352	0.0				
353	0.0				
354	0.0				
355	0.0				
356	0.0				
357	0.0				
358	0.0				
359	0.0				
360	0.0				
361	0.0				
362	0.0				
363	0.0				
364	0.0				
365	0.0				
366	0.0				
367	0.0				
368	0.0				
369	0.0				
370	0.0				
371	0.0				
372	0.0				
373	0.0				
374	0.0				
375	0.0				
376	0.0				
377	0.0				
378	0.0				
379	0.0				
380	0.0				
381	0.0				
382	0.0				
383	0.0				
384	0.0				
385	0.0				
386	0.0				
387	0.0				
388	0.0				
389	0.0				
390	0.0				
391	0.0				
392	0.0				
393	0.0				
394	0.0				
395	0.0				
396	0.0				
397	0.0				
398	0.0				
399	0.0				
400	0.0				
401	0.0				
402	0.0				
403	0.0				
404	0.0				
405	0.0				
406	0.0				
407	0.0				
408	0.0				
409	0.0				
410	0.0				
411	0.0				
412	0.0				
413	0.007				
414	1.291				
415	48.745				
416	94.898				
417	96.518				
418	96.582				
419	95.654				
420	94.68				
421	97.325				
422	97.032				
423	96.713				
424	96.957				
425	97.212				
426	96.504				
427	97.293				
428	97.197				
429	96.646				
430	98.085				
431	98.415				
432	98.514				
433	98.246				
434	97.279				
435	96.115				
436	96.807				
437	97.879				
438	98.122				
439	97.932				
440	97.2				
441	97.093				
442	97.854				
443	96.084				
444	93.83				
445	95.503				
446	98.093				
447	98.75				
448	97.903				
449	95.479				
450	95.085				
451	97.285				
452	97.631				
453	97.496				
454	97.465				
455	96.723				
456	97.678				
457	98.602				
458	98.018				
459	97.831				
460	97.771				
461	97.027				
462	95.877				
463	95.708				
464	96.334				
465	97.273				
466	98.43				
467	98.391				
468	97.887				
469	97.189				
470	94.411				
471	91.126				
472	83.71				
473	25.702				
474	0.716				
475	0.022				
476	0.002				
477	0.0				
478	0.0				
479	0.0				
480	0.0				
481	0.0				
482	0.0				
483	0.0				
484	0.0				
485	0.0				
486	0.0				
487	0.0				
488	0.0				
489	0.0				
490	0.0				
491	0.0				
492	0.0				
493	0.0				
494	0.0				
495	0.0				
496	0.001				
497	0.014				
498	0.221				
499	10.333				
500	73.861				
501	97.509				
502	97.907				
503	98.025				
504	97.534				
505	97.279				
506	97.404				
507	97.841				
508	98.538				
509	98.622				
510	97.89				
511	97.628				
512	97.798				
513	97.089				
514	95.747				
515	95.59				
516	96.554				
517	97.053				
518	97.263				
519	98.062				
520	98.884				
521	98.746				
522	97.676				
523	96.482				
524	95.996				
525	95.83				
526	95.38				
527	96.077				
528	97.878				
529	97.139				
530	93.808				
531	92.809				
532	95.367				
533	97.819				
534	98.393				
535	97.774				
536	96.963				
537	97.602				
538	98.069				
539	95.949				
540	94.14				
541	94.37				
542	95.01				
543	96.47				
544	97.915				
545	97.293				
546	80.471				
547	19.416				
548	0.953				
549	0.073				
550	0.01				
551	0.002				
552	0.001				
553	0.0				
554	0.0				
555	0.0				
556	0.0				
557	0.0				
558	0.0				
559	0.0				
560	0.0				
561	0.0				
562	0.0				
563	0.0				
564	0.0				
565	0.0				
566	0.0				
567	0.001				
568	0.002				
569	0.009				
570	0.05				
571	0.439				
572	7.981				
573	62.063				
574	97.358				
575	98.704				
576	98.545				
577	99.074				
578	98.872				
579	98.817				
580	98.96				
581	98.919				
582	98.939				
583	98.999				
584	98.911				
585	99.053				
586	99.158				
587	98.636				
588	97.851				
589	97.164				
590	96.838				
591	97.025				
592	97.929				
593	98.719				
594	98.704				
595	98.113				
596	98.023				
597	98.472				
598	98.549				
599	97.964				
600	97.568				
601	97.99				
602	98.507				
603	98.338				
604	97.735				
605	97.686				
606	98.257				
607	98.58				
608	98.498				
609	98.502				
610	98.252				
611	97.47				
612	97.195				
613	97.591				
614	94.868				
615	60.313				
616	13.179				
617	1.687				
618	0.282				
619	0.063				
620	0.018				
621	0.006				
622	0.002				
623	0.001				
624	0.001				
625	0.0				
626	0.0				
627	0.0				
628	0.0				
629	0.0				
630	0.0				
631	0.0				
632	0.0				
633	0.0				
634	0.0				
635	0.0				
636	0.0				
637	0.0				
638	0.0				
639	0.0				
640	0.0				
641	0.0				
642	0.0				
643	0.0				
644	0.0				
645	0.0				
646	0.0				
647	0.001				
648	0.001				
649	0.003				
650	0.006				
651	0.015				
652	0.043				
653	0.143				
654	0.579				
655	2.979				
656	18.043				
657	64.488				
658	96.071				
659	98.262				
660	98.404				
661	98.144				
662	97.976				
663	98.289				
664	98.684				
665	98.838				
666	98.788				
667	98.716				
668	98.861				
669	99.172				
670	99.46				
671	99.384				
672	99.024				
673	98.586				
674	98.504				
675	98.664				
676	98.92				
677	98.979				
678	98.898				
679	98.767				
680	98.703				
681	98.744				
682	98.801				
683	98.849				
684	98.977				
685	99.241				
686	99.451				
687	99.531				
688	99.326				
689	98.916				
690	98.838				
691	98.9				
692	99.241				
693	99.498				
694	99.416				
695	99.076				
696	98.655				
697	98.47				
698	98.473				
699	98.665				
700	98.843				
701	99.014				
702	99.103				
703	99.214				
704	99.248				
705	99.295				
706	99.333				
707	99.358				
708	99.373				
709	99.328				
710	99.275				
711	99.092				
712	98.928				
713	98.878				
714	99.014				
715	99.276				
716	99.434				
717	99.439				
718	99.405				
719	99.384				
720	99.407				
721	99.484				
722	99.42				
723	99.294				
724	99.233				
725	99.172				
726	99.111				
727	99.181				
728	99.281				
729	99.197				
730	99.122				
731	98.925				
732	98.856				
733	98.637				
734	98.526				
735	98.487				
736	98.497				
737	98.561				
738	98.703				
739	98.725				
740	98.845				
741	98.82				
742	98.854				
743	98.908				
744	99.017				
745	99.126				
746	98.769				
747	98.372				
748	98.026				
749	96.393				
750	82.837				
751	46.211				
752	14.019				
753	3.09				
754	0.734				
755	0.191				
756	0.057				
757	0.019				
758	0.008				
759	0.003				
760	0.001				
761	0.001				
762	0.0				
763	0.0				
764	0.0				
765	0.0				
766	0.0				
767	0.0				
768	0.0				
769	0.0				
770	0.0				
771	0.0				
772	0.0				
773	0.0				
774	0.0				
775	0.0				
776	0.0				
777	0.0				
778	0.0				
779	0.0				
780	0.0				
781	0.0				
782	0.0				
783	0.001				
784	0.097				
785	0.036				
786	0.0				
787	0.0				
788	0.0				
789	0.0				
790	0.0				
791	0.0				
792	0.0				
793	0.0				
794	0.0				
795	0.0				
796	0.0				
797	0.0				
798	0.0				
799	0.0				
800	0.0				
801	0.0				
802	0.0				
803	0.0				
804	0.0				
805	0.0				
806	0.0				
807	0.001				
808	0.001				
809	0.002				
810	0.002				
811	0.003				
812	0.003				
813	0.004				
814	0.005				
815	0.006				
816	0.006				
817	0.006				
818	0.006				
819	0.006				
820	0.006				
821	0.006				
822	0.006				
823	0.006				
824	0.005				
825	0.004				
826	0.003				
827	0.003				
828	0.002				
829	0.002				
830	0.001				
831	0.001				
832	0.0				
833	0.0				
834	0.0				
835	0.0				
836	0.0				
837	0.0				
838	0.0				
839	0.0				
840	0.0				
841	0.001				
842	0.001				
843	0.003				
844	0.006				
845	0.009				
846	0.013				
847	0.016				
848	0.02				
849	0.023				
850	0.027				
851	0.03				
852	0.032				
853	0.034				
854	0.035				
855	0.035				
856	0.035				
857	0.034				
858	0.034				
859	0.033				
860	0.032				
861	0.031				
862	0.03				
863	0.028				
864	0.026				
865	0.023				
866	0.021				
867	0.018				
868	0.015				
869	0.013				
870	0.011				
871	0.009				
872	0.007				
873	0.006				
874	0.005				
875	0.005				
876	0.004				
877	0.004				
878	0.004				
879	0.003				
880	0.003				
881	0.002				
882	0.002				
883	0.001				
884	0.001				
885	0.001				
886	0.0				
887	0.0				
888	0.0				
889	0.0				
890	0.0				
891	0.0				
892	0.0				
893	0.0				
894	0.0				
895	0.0				
896	0.0				
897	0.0				
898	0.0				
899	0.0				
900	0.0				
901	0.0				
902	0.0				
903	0.0				
904	0.0				
905	0.0				
906	0.0				
907	0.0				
908	0.0				
909	0.0				
910	0.0				
911	0.0				
912	0.0				
913	0.0				
914	0.0				
915	0.0				
916	0.0				
917	0.0				
918	0.0				
919	0.0				
920	0.0				
921	0.0				
922	0.0				
923	0.0				
924	0.0				
925	0.0				
926	0.0				
927	0.0				
928	0.0				
929	0.0				
930	0.0				
931	0.0				
932	0.0				
933	0.0				
934	0.0				
935	0.0				
936	0.0				
937	0.0				
938	0.0				
939	0.0				
940	0.0				
941	0.0				
942	0.0				
943	0.0				
944	0.0				
945	0.0				
946	0.0				
947	0.0				
948	0.0				
949	0.0				
950	0.0				
951	0.0				
952	0.0				
953	0.0				
954	0.0				
955	0.0				
956	0.0				
957	0.0				
958	0.0				
959	0.0				
960	0.0				
961	0.0				
962	0.0				
963	0.0				
964	0.0				
965	0.0				
966	0.0				
967	0.0				
968	0.0				
969	0.0				
970	0.0				
971	0.0				
972	0.0				
973	0.0				
974	0.0				
975	0.0				
976	0.0				
977	0.0				
978	0.001				
979	0.001				
980	0.003				
981	0.006				
982	0.01				
983	0.015				
984	0.019				
985	0.022				
986	0.023				
987	0.02				
988	0.017				
989	0.014				
990	0.011				
991	0.009				
992	0.009				
993	0.009				
994	0.009				
995	0.01				
996	0.01				
997	0.01				
998	0.011				
999	0.011				
1000	0.013				
1001	0.015				
1002	0.018				
1003	0.021				
1004	0.024				
1005	0.026				
1006	0.026				
1007	0.025				
1008	0.023				
1009	0.02				
1010	0.018				
1011	0.017				
1012	0.018				
1013	0.021				
1014	0.026				
1015	0.034				
1016	0.044				
1017	0.054				
1018	0.063				
1019	0.069				
1020	0.075				
1021	0.081				
1022	0.09				
1023	0.106				
1024	0.131				
1025	0.167				
1026	0.219				
1027	0.286				
1028	0.366				
1029	0.461				
1030	0.561				
1031	0.672				
1032	0.806				
1033	0.951				
1034	1.017				
1035	1.305				
1036	1.836				
1037	2.984				
1038	6.345				
1039	19.501				
1040	40.544				
1041	14.82				
1042	5.053				
1043	2.449				
1044	1.456				
1045	1.009				
1046	0.774				
1047	0.789				
1048	0.673				
1049	0.628				
1050	0.62				
1051	0.636				
1052	0.66				
1053	0.685				
1054	0.706				
1055	0.721				
1056	0.734				
1057	0.758				
1058	0.806				
1059	0.908				
1060	0.902				
1061	1.113				
1062	1.536				
1063	2.327				
1064	4.043				
1065	6.925				
1066	6.699				
1067	3.357				
1068	1.587				
1069	0.85				
1070	0.888				
1071	0.51				
1072	0.33				
1073	0.234				
1074	0.183				
1075	0.152				
1076	0.133				
1077	0.123				
1078	0.119				
1079	0.121				
1080	0.128				
1081	0.143				
1082	0.17				
1083	0.218				
1084	0.309				
1085	0.5				
1086	0.868				
1087	0.89				
1088	2.097				
1089	6.8				
1090	9.822				
1091	3.37				
1092	1.312				
1093	0.707				
1094	0.803				
1095	0.45				
1096	0.32				
1097	0.254				
1098	0.217				
1099	0.198				
1100	0.189				
