Wavelength	Transmittance	hex_color	Manufacturer	Name	Filter Number
300	0.0		Chroma		et750sp2p80
301	0.0				
302	0.0				
303	0.0				
304	0.0				
305	0.0				
306	0.0				
307	0.0				
308	0.0				
309	0.0				
310	0.0				
311	0.0				
312	0.0				
313	0.0				
314	0.0				
315	0.0				
316	0.0				
317	0.0				
318	0.0				
319	0.0				
320	0.0				
321	0.0				
322	0.0				
323	0.0				
324	0.0				
325	0.0				
326	0.0				
327	0.0				
328	0.0				
329	0.0				
330	0.0				
331	0.0				
332	0.0				
333	0.0				
334	0.0				
335	0.0				
336	0.0				
337	0.0				
338	0.0				
339	0.0				
340	0.0				
341	0.0				
342	0.0				
343	0.0				
344	0.0				
345	0.0				
346	0.0				
347	0.0				
348	0.0				
349	0.0				
350	0.0				
351	0.0				
352	0.0				
353	0.0				
354	0.0				
355	0.0				
356	0.0				
357	0.0				
358	0.0				
359	0.0				
360	0.0				
361	0.0				
362	0.0				
363	0.0				
364	0.0				
365	0.0				
366	0.0				
367	0.0				
368	0.0				
369	0.0				
370	0.0				
371	0.0				
372	0.0				
373	0.0				
374	0.0				
375	0.0				
376	0.0				
377	0.0				
378	0.0				
379	0.0				
380	0.0				
381	0.0				
382	0.0				
383	0.0				
384	0.0				
385	0.0				
386	0.001				
387	0.005				
388	0.046				
389	0.512				
390	5.258				
391	32.942				
392	69.624				
393	79.974				
394	81.855				
395	83.074				
396	84.463				
397	85.597				
398	86.248				
399	86.984				
400	87.427				
401	88.168				
402	89.072				
403	89.094				
404	89.818				
405	90.783				
406	91.175				
407	90.711				
408	91.461				
409	92.573				
410	92.456				
411	92.291				
412	92.93				
413	93.81				
414	93.864				
415	93.266				
416	93.967				
417	94.753				
418	94.599				
419	93.971				
420	93.768				
421	94.518				
422	95.542				
423	94.877				
424	93.682				
425	93.297				
426	93.95				
427	95.095				
428	95.796				
429	95.013				
430	94.786				
431	94.976				
432	95.94				
433	96.348				
434	96.106				
435	96.076				
436	96.358				
437	95.861				
438	95.246				
439	93.888				
440	93.969				
441	94.875				
442	95.295				
443	94.017				
444	92.034				
445	91.642				
446	93.182				
447	94.613				
448	94.735				
449	93.17				
450	92.233				
451	92.919				
452	94.755				
453	96.027				
454	95.762				
455	94.8				
456	94.584				
457	95.483				
458	96.31				
459	95.947				
460	95.589				
461	95.272				
462	95.854				
463	96.407				
464	95.95				
465	95.061				
466	94.127				
467	94.42				
468	95.073				
469	96.218				
470	96.104				
471	95.306				
472	94.613				
473	94.908				
474	95.664				
475	96.419				
476	96.374				
477	95.28				
478	94.819				
479	95.227				
480	95.936				
481	96.723				
482	96.189				
483	95.761				
484	94.954				
485	95.258				
486	96.045				
487	96.878				
488	96.564				
489	95.649				
490	94.939				
491	94.885				
492	95.559				
493	96.513				
494	96.889				
495	96.277				
496	95.197				
497	94.613				
498	94.772				
499	95.878				
500	96.979				
501	96.955				
502	96.128				
503	95.12				
504	94.683				
505	95.157				
506	96.2				
507	97.136				
508	97.397				
509	96.325				
510	95.256				
511	94.771				
512	95.017				
513	96.02				
514	97.218				
515	97.248				
516	96.57				
517	95.189				
518	94.595				
519	94.563				
520	95.4				
521	96.576				
522	97.405				
523	97.152				
524	96.134				
525	94.644				
526	93.792				
527	93.862				
528	94.757				
529	96.194				
530	97.216				
531	97.377				
532	97.23				
533	96.54				
534	96.275				
535	96.301				
536	96.89				
537	97.554				
538	97.898				
539	97.865				
540	97.262				
541	96.564				
542	96.371				
543	96.311				
544	96.987				
545	97.726				
546	97.865				
547	97.909				
548	97.433				
549	97.031				
550	96.71				
551	96.619				
552	97.015				
553	97.238				
554	97.874				
555	97.942				
556	97.757				
557	97.399				
558	96.859				
559	96.505				
560	96.769				
561	96.779				
562	97.556				
563	97.888				
564	97.876				
565	97.959				
566	97.495				
567	97.281				
568	97.252				
569	97.131				
570	97.31				
571	97.761				
572	97.889				
573	97.696				
574	97.19				
575	96.999				
576	96.871				
577	96.916				
578	97.129				
579	97.8				
580	97.855				
581	98.12				
582	97.963				
583	97.395				
584	96.978				
585	96.444				
586	96.255				
587	96.36				
588	96.553				
589	97.169				
590	97.434				
591	97.81				
592	97.856				
593	98.111				
594	97.708				
595	97.602				
596	97.438				
597	97.549				
598	98.008				
599	97.993				
600	98.165				
601	98.149				
602	97.737				
603	97.175				
604	96.717				
605	96.336				
606	96.013				
607	96.22				
608	96.493				
609	96.92				
610	97.513				
611	97.845				
612	98.015				
613	98.09				
614	98.05				
615	97.829				
616	97.853				
617	97.828				
618	97.826				
619	98.061				
620	98.119				
621	98.447				
622	98.123				
623	98.07				
624	97.627				
625	97.135				
626	96.861				
627	96.611				
628	96.638				
629	96.743				
630	96.884				
631	97.278				
632	97.927				
633	98.197				
634	98.241				
635	98.308				
636	98.403				
637	98.432				
638	98.208				
639	98.547				
640	98.398				
641	98.481				
642	98.476				
643	98.371				
644	98.08				
645	97.633				
646	97.221				
647	96.794				
648	96.606				
649	96.299				
650	96.493				
651	96.754				
652	97.38				
653	97.935				
654	98.314				
655	98.753				
656	98.767				
657	98.594				
658	98.205				
659	97.691				
660	97.072				
661	96.839				
662	96.882				
663	97.023				
664	97.197				
665	97.699				
666	98.118				
667	98.755				
668	98.919				
669	98.865				
670	98.659				
671	98.267				
672	98.004				
673	97.636				
674	97.272				
675	97.105				
676	97.012				
677	97.61				
678	97.74				
679	98.048				
680	97.916				
681	98.259				
682	98.268				
683	97.947				
684	97.904				
685	97.923				
686	97.852				
687	97.989				
688	98.342				
689	98.553				
690	98.682				
691	98.999				
692	99.036				
693	99.02				
694	98.5				
695	97.951				
696	97.573				
697	97.514				
698	97.488				
699	97.435				
700	97.655				
701	98.028				
702	98.588				
703	99.028				
704	98.724				
705	98.622				
706	98.464				
707	97.685				
708	97.122				
709	96.592				
710	96.49				
711	96.579				
712	97.192				
713	97.441				
714	98.416				
715	98.959				
716	98.91				
717	98.626				
718	98.489				
719	97.894				
720	96.958				
721	96.398				
722	96.109				
723	95.871				
724	96.47				
725	96.977				
726	97.4				
727	97.988				
728	97.922				
729	98.079				
730	97.29				
731	96.39				
732	95.983				
733	95.733				
734	96.187				
735	96.784				
736	97.451				
737	97.464				
738	96.579				
739	94.637				
740	91.867				
741	90.145				
742	88.606				
743	89.949				
744	92.203				
745	91.047				
746	80.772				
747	58.123				
748	32.25				
749	14.057				
750	5.573				
751	2.163				
752	0.863				
753	0.374				
754	0.175				
755	0.087				
756	0.047				
757	0.026				
758	0.015				
759	0.009				
760	0.005				
761	0.003				
762	0.002				
763	0.001				
764	0.001				
765	0.0				
766	0.0				
767	0.0				
768	0.0				
769	0.0				
770	0.0				
771	0.0				
772	0.0				
773	0.0				
774	0.0				
775	0.0				
776	0.0				
777	0.0				
778	0.0				
779	0.0				
780	0.0				
781	0.0				
782	0.0				
783	0.0				
784	0.0				
785	0.0				
786	0.0				
787	0.0				
788	0.0				
789	0.0				
790	0.0				
791	0.0				
792	0.0				
793	0.0				
794	0.0				
795	0.0				
796	0.0				
797	0.0				
798	0.0				
799	0.0				
800	0.0				
801	0.0				
802	0.0				
803	0.0				
804	0.0				
805	0.0				
806	0.0				
807	0.0				
808	0.0				
809	0.0				
810	0.0				
811	0.0				
812	0.0				
813	0.0				
814	0.0				
815	0.0				
816	0.0				
817	0.0				
818	0.0				
819	0.0				
820	0.0				
821	0.0				
822	0.0				
823	0.0				
824	0.0				
825	0.0				
826	0.0				
827	0.0				
828	0.0				
829	0.0				
830	0.0				
831	0.0				
832	0.0				
833	0.0				
834	0.0				
835	0.0				
836	0.0				
837	0.0				
838	0.0				
839	0.0				
840	0.0				
841	0.0				
842	0.0				
843	0.0				
844	0.0				
845	0.0				
846	0.0				
847	0.0				
848	0.0				
849	0.0				
850	0.0				
851	0.0				
852	0.0				
853	0.0				
854	0.0				
855	0.0				
856	0.0				
857	0.0				
858	0.0				
859	0.0				
860	0.0				
861	0.0				
862	0.0				
863	0.0				
864	0.0				
865	0.0				
866	0.0				
867	0.0				
868	0.0				
869	0.0				
870	0.0				
871	0.0				
872	0.0				
873	0.0				
874	0.0				
875	0.0				
876	0.0				
877	0.0				
878	0.0				
879	0.0				
880	0.0				
881	0.0				
882	0.0				
883	0.0				
884	0.0				
885	0.0				
886	0.0				
887	0.0				
888	0.0				
889	0.0				
890	0.0				
891	0.0				
892	0.0				
893	0.0				
894	0.0				
895	0.0				
896	0.0				
897	0.0				
898	0.0				
899	0.0				
900	0.0				
901	0.0				
902	0.0				
903	0.0				
904	0.0				
905	0.0				
906	0.0				
907	0.0				
908	0.0				
909	0.0				
910	0.0				
911	0.0				
912	0.0				
913	0.0				
914	0.0				
915	0.0				
916	0.0				
917	0.0				
918	0.0				
919	0.0				
920	0.0				
921	0.0				
922	0.0				
923	0.0				
924	0.0				
925	0.0				
926	0.0				
927	0.0				
928	0.0				
929	0.0				
930	0.0				
931	0.0				
932	0.0				
933	0.0				
934	0.0				
935	0.0				
936	0.0				
937	0.0				
938	0.0				
939	0.0				
940	0.0				
941	0.0				
942	0.0				
943	0.0				
944	0.0				
945	0.0				
946	0.0				
947	0.0				
948	0.0				
949	0.0				
950	0.0				
951	0.0				
952	0.0				
953	0.0				
954	0.0				
955	0.0				
956	0.0				
957	0.0				
958	0.0				
959	0.0				
960	0.0				
961	0.0				
962	0.0				
963	0.0				
964	0.0				
965	0.0				
966	0.0				
967	0.0				
968	0.0				
969	0.0				
970	0.0				
971	0.0				
972	0.0				
973	0.0				
974	0.0				
975	0.0				
976	0.0				
977	0.0				
978	0.0				
979	0.0				
980	0.0				
981	0.0				
982	0.0				
983	0.0				
984	0.0				
985	0.0				
986	0.0				
987	0.0				
988	0.0				
989	0.0				
990	0.0				
991	0.0				
992	0.0				
993	0.0				
994	0.0				
995	0.0				
996	0.0				
997	0.0				
998	0.0				
999	0.0				
1000	0.0				
1001	0.0				
1002	0.0				
1003	0.0				
1004	0.0				
1005	0.0				
1006	0.0				
1007	0.0				
1008	0.0				
1009	0.0				
1010	0.0				
1011	0.0				
1012	0.0				
1013	0.0				
1014	0.0				
1015	0.0				
1016	0.0				
1017	0.0				
1018	0.0				
1019	0.0				
1020	0.0				
1021	0.0				
1022	0.0				
1023	0.0				
1024	0.0				
1025	0.0				
1026	0.0				
1027	0.0				
1028	0.0				
1029	0.0				
1030	0.0				
1031	0.0				
1032	0.0				
1033	0.0				
1034	0.0				
1035	0.0				
1036	0.0				
1037	0.0				
1038	0.0				
1039	0.0				
1040	0.0				
1041	0.0				
1042	0.0				
1043	0.0				
1044	0.0				
1045	0.0				
1046	0.0				
1047	0.0				
1048	0.0				
1049	0.0				
1050	0.0				
1051	0.0				
1052	0.0				
1053	0.0				
1054	0.0				
1055	0.0				
1056	0.0				
1057	0.0				
1058	0.0				
1059	0.0				
1060	0.0				
1061	0.0				
1062	0.0				
1063	0.0				
1064	0.0				
1065	0.0				
1066	0.0				
1067	0.0				
1068	0.0				
1069	0.0				
1070	0.0				
1071	0.0				
1072	0.0				
1073	0.0				
1074	0.0				
1075	0.0				
1076	0.0				
1077	0.0				
1078	0.0				
1079	0.0				
1080	0.0				
1081	0.0				
1082	0.0				
1083	0.0				
1084	0.0				
1085	0.0				
1086	0.0				
1087	0.0				
1088	0.0				
1089	0.0				
1090	0.0				
1091	0.0				
1092	0.0				
1093	0.0				
1094	0.0				
1095	0.0				
1096	0.0				
1097	0.0				
1098	0.0				
1099	0.0				
1100					
