Wavelength	Transmittance	hex_color	Manufacturer	Name	Filter Number
300	0.0		Chroma		zet488594mtrf0
301	0.0				
302	0.0				
303	0.0				
304	0.0				
305	0.0				
306	0.0				
307	0.0				
308	0.0				
309	0.0				
310	0.0				
311	0.0				
312	0.0				
313	0.0				
314	0.0				
315	0.0				
316	0.0				
317	0.0				
318	0.0				
319	0.0				
320	0.0				
321	0.0				
322	0.0				
323	0.0				
324	0.0				
325	0.0				
326	0.0				
327	0.0				
328	0.0				
329	0.0				
330	0.0				
331	0.0				
332	0.0				
333	0.0				
334	0.0				
335	0.0				
336	0.0				
337	0.0				
338	0.0				
339	0.0				
340	0.0				
341	0.0				
342	0.0				
343	0.0				
344	0.0				
345	0.0				
346	0.0				
347	0.0				
348	0.0				
349	0.0				
350	0.0				
351	0.0				
352	0.0				
353	0.0				
354	0.0				
355	0.0				
356	0.0				
357	0.0				
358	0.0				
359	0.0				
360	0.0				
361	0.0				
362	0.0				
363	0.0				
364	0.0				
365	0.0				
366	0.0				
367	0.0				
368	0.0				
369	0.0				
370	0.0				
371	0.0				
372	0.0				
373	0.0				
374	0.0				
375	0.0				
376	0.0				
377	0.0				
378	0.0				
379	0.0				
380	0.0				
381	0.0				
382	0.0				
383	0.0				
384	0.0				
385	0.0				
386	0.0				
387	0.0				
388	0.0				
389	0.0				
390	0.0				
391	0.0				
392	0.0				
393	0.0				
394	0.0				
395	0.0				
396	0.0				
397	0.0				
398	0.0				
399	0.0				
400	0.0				
401	0.0				
402	0.0				
403	0.0				
404	0.0				
405	0.0				
406	0.0				
407	0.0				
408	0.0				
409	0.0				
410	0.0				
411	0.0				
412	0.0				
413	0.0				
414	0.0				
415	0.0				
416	0.0				
417	0.0				
418	0.0				
419	0.0				
420	0.0				
421	0.0				
422	0.0				
423	0.0				
424	0.0				
425	0.0				
426	0.0				
427	0.0				
428	0.0				
429	0.0				
430	0.0				
431	0.0				
432	0.0				
433	0.0				
434	0.0				
435	0.0				
436	0.0				
437	0.0				
438	0.0				
439	0.0				
440	0.0				
441	0.0				
442	0.0				
443	0.0				
444	0.0				
445	0.0				
446	0.0				
447	0.0				
448	0.0				
449	0.0				
450	0.0				
451	0.0				
452	0.0				
453	0.0				
454	0.0				
455	0.0				
456	0.0				
457	0.0				
458	0.0				
459	0.0				
460	0.0				
461	0.0				
462	0.0				
463	0.0				
464	0.0				
465	0.0				
466	0.0				
467	0.0				
468	0.0				
469	0.0				
470	0.0				
471	0.0				
472	0.0				
473	0.0				
474	0.0				
475	0.0				
476	0.0				
477	0.0				
478	0.0				
479	0.0				
480	0.0				
481	0.0				
482	0.0				
483	0.0				
484	0.0				
485	0.0				
486	0.0				
487	0.0				
488	0.0				
489	0.0				
490	0.0				
491	0.0				
492	0.0				
493	0.0				
494	0.0				
495	0.0				
496	0.0				
497	0.0				
498	0.0				
499	0.0				
500	0.003				
501	0.223				
502	15.731				
503	73.131				
504	93.792				
505	96.088				
506	96.183				
507	96.078				
508	95.612				
509	96.958				
510	97.404				
511	96.786				
512	93.851				
513	93.381				
514	95.826				
515	94.562				
516	92.329				
517	93.957				
518	95.771				
519	96.275				
520	97.121				
521	97.043				
522	97.01				
523	96.502				
524	94.099				
525	93.419				
526	95.787				
527	97.67				
528	97.778				
529	96.219				
530	94.677				
531	95.818				
532	97.437				
533	97.506				
534	97.297				
535	95.527				
536	92.094				
537	89.521				
538	87.451				
539	86.57				
540	89.704				
541	94.199				
542	96.35				
543	97.119				
544	95.786				
545	92.069				
546	91.258				
547	94.362				
548	96.636				
549	97.083				
550	97.713				
551	97.624				
552	97.146				
553	96.693				
554	93.998				
555	91.307				
556	92.439				
557	94.524				
558	95.232				
559	96.656				
560	96.911				
561	95.104				
562	95.097				
563	95.127				
564	93.553				
565	94.359				
566	94.032				
567	91.586				
568	93.403				
569	93.745				
570	92.702				
571	94.556				
572	81.298				
573	30.131				
574	1.563				
575	0.013				
576	0.0				
577	0.0				
578	0.0				
579	0.0				
580	0.0				
581	0.0				
582	0.0				
583	0.0				
584	0.0				
585	0.0				
586	0.0				
587	0.0				
588	0.0				
589	0.0				
590	0.0				
591	0.0				
592	0.0				
593	0.0				
594	0.0				
595	0.0				
596	0.0				
597	0.0				
598	0.0				
599	0.0				
600	0.0				
601	0.0				
602	0.0				
603	0.0				
604	0.0				
605	0.0				
606	0.0				
607	0.016				
608	1.015				
609	16.015				
610	52.775				
611	75.342				
612	87.88				
613	88.111				
614	88.687				
615	93.546				
616	91.891				
617	89.601				
618	92.674				
619	95.93				
620	95.556				
621	93.977				
622	93.014				
623	93.246				
624	95.278				
625	96.993				
626	95.567				
627	92.712				
628	92.235				
629	94.173				
630	94.72				
631	92.515				
632	90.857				
633	92.428				
634	95.849				
635	97.633				
636	97.145				
637	96.597				
638	97.344				
639	98.203				
640	97.684				
641	96.603				
642	96.338				
643	97.277				
644	98.217				
645	98.231				
646	97.463				
647	96.837				
648	96.693				
649	96.661				
650	96.537				
651	96.52				
652	96.795				
653	97.363				
654	97.916				
655	97.956				
656	97.374				
657	96.626				
658	96.224				
659	96.611				
660	97.571				
661	98.194				
662	97.888				
663	96.911				
664	96.228				
665	96.401				
666	97.083				
667	97.244				
668	96.24				
669	94.661				
670	93.759				
671	94.283				
672	95.936				
673	97.704				
674	98.533				
675	98.402				
676	98.017				
677	97.968				
678	98.195				
679	98.4				
680	98.213				
681	97.864				
682	97.566				
683	97.634				
684	98.113				
685	98.635				
686	98.865				
687	98.69				
688	98.243				
689	97.933				
690	97.986				
691	98.218				
692	98.289				
693	97.994				
694	97.477				
695	97.281				
696	97.628				
697	98.14				
698	98.448				
699	97.88				
700	96.876				
701	96.106				
702	96.112				
703	96.893				
704	97.99				
705	98.563				
706	98.466				
707	98.065				
708	97.739				
709	97.721				
710	97.871				
711	98.062				
712	98.438				
713	98.653				
714	98.504				
715	97.748				
716	96.549				
717	95.57				
718	95.358				
719	95.691				
720	96.223				
721	96.556				
722	96.697				
723	96.696				
724	95.683				
725	93.167				
726	91.601				
727	93.033				
728	87.264				
729	57.143				
730	23.069				
731	6.92				
732	2.243				
733	1.242				
734	1.979				
735	7.951				
736	3.924				
737	0.548				
738	0.026				
739	0.001				
740	0.0				
741	0.0				
742	0.0				
743	0.0				
744	0.0				
745	0.0				
746	0.0				
747	0.0				
748	0.0				
749	0.0				
750	0.0				
751	0.0				
752	0.0				
753	0.0				
754	0.0				
755	0.0				
756	0.0				
757	0.0				
758	0.002				
759	0.021				
760	0.335				
761	1.834				
762	2.346				
763	2.145				
764	4.878				
765	22.234				
766	22.956				
767	8.665				
768	2.036				
769	0.95				
770	0.934				
771	1.154				
772	1.216				
773	0.958				
774	0.642				
775	0.466				
776	0.446				
777	0.559				
778	0.761				
779	0.821				
780	0.615				
781	0.364				
782	0.216				
783	0.157				
784	0.164				
785	0.264				
786	0.687				
787	2.558				
788	9.501				
789	13.111				
790	7.624				
791	2.92				
792	1.458				
793	1.387				
794	2.383				
795	6.374				
796	25.011				
797	41.848				
798	24.719				
799	8.391				
800	3.089				
801	1.831				
802	1.629				
803	1.816				
804	2.18				
805	2.492				
806	2.637				
807	2.713				
808	3.036				
809	4.171				
810	7.462				
811	16.861				
812	30.592				
813	27.493				
814	13.798				
815	5.553				
816	2.643				
817	1.815				
818	1.833				
819	2.597				
820	4.891				
821	11.138				
822	25.159				
823	38.77				
824	38.312				
825	30.279				
826	26.159				
827	29.62				
828	38.834				
829	40.196				
830	26.278				
831	12.291				
832	5.21				
833	2.604				
834	1.732				
835	1.55				
836	1.882				
837	3.051				
838	6.091				
839	13.477				
840	25.557				
841	32.29				
842	29.766				
843	25.424				
844	26.687				
845	39.343				
846	59.927				
847	52.647				
848	24.829				
849	8.266				
850	3.43				
851	1.426				
852	0.848				
853	0.767				
854	1.058				
855	2.159				
856	7.367				
857	23.712				
858	31.199				
859	17.029				
860	5.075				
861	1.203				
862	0.421				
863	0.251				
864	0.226				
865	0.304				
866	0.621				
867	1.87				
868	6.316				
869	9.939				
870	6.686				
871	2.495				
872	0.655				
873	0.21				
874	0.104				
875	0.072				
876	0.067				
877	0.078				
878	0.119				
879	0.235				
880	0.576				
881	1.696				
882	5.673				
883	14.03				
884	16.196				
885	9.869				
886	4.551				
887	2.403				
888	1.77				
889	1.788				
890	2.355				
891	3.902				
892	7.504				
893	15.883				
894	31.44				
895	42.343				
896	37.383				
897	24.138				
898	14.22				
899	9.005				
900	6.53				
901	5.527				
902	5.5				
903	6.518				
904	9.29				
905	16.278				
906	34.135				
907	49.898				
908	33.149				
909	12.204				
910	3.189				
911	0.934				
912	0.349				
913	0.162				
914	0.607				
915	0.213				
916	0.114				
917	0.104				
918	0.141				
919	0.201				
920	0.33				
921	0.693				
922	0.786				
923	3.1				
924	17.831				
925	21.331				
926	9.653				
927	2.354				
928	0.514				
929	0.185				
930	0.653				
931	0.201				
932	0.09				
933	0.069				
934	0.072				
935	0.09				
936	0.126				
937	0.179				
938	0.285				
939	0.523				
940	0.89				
941	2.166				
942	5.68				
943	17.55				
944	42.252				
945	48.54				
946	30.497				
947	13.911				
948	6.334				
949	3.352				
950	2.166				
951	1.648				
952	1.463				
953	1.51				
954	1.824				
955	2.599				
956	4.265				
957	7.968				
958	16.329				
959	27.396				
960	26.761				
961	16.079				
962	7.193				
963	3.167				
964	1.611				
965	0.963				
966	0.982				
967	0.729				
968	0.646				
969	0.675				
970	0.82				
971	1.106				
972	1.839				
973	3.483				
974	7.15				
975	16.476				
976	36.4				
977	54.226				
978	49.906				
979	33.601				
980	20.501				
981	13.412				
982	10.652				
983	10.214				
984	11.795				
985	16.027				
986	25.412				
987	44.464				
988	63.753				
989	56.583				
990	32.565				
991	14.093				
992	5.68				
993	2.475				
994	1.196				
995	0.671				
996	0.581				
997	0.361				
998	0.252				
999	0.192				
1000	0.192				
